#made by Lianne
@    title "Pull COM"
@    xaxis  label "COM pull energy (kJ/mol)"
@    yaxis  label "distance (nm)"
@TYPE xy
@ view 0.15, 0.15, 0.75, 0.85
@ legend on
@ legend box on
@ legend loctype view
@ legend 0.78, 0.8
@ legend length 2
@ s0 legend "0 X"
@ s1 legend "0 Y"
2.199960	0.0000000
2.202200	0.0024830
2.208670	0.0378630
2.216160	0.1312400
2.222900	0.2630300
2.229810	0.4454840
2.236350	0.6621320
2.241290	0.8539290
2.246970	1.1047480
2.255060	1.5178690
2.263360	2.0094400
2.271230	2.5391730
2.277780	3.0271330
2.283840	3.5175830
2.287490	3.8301900
2.288360	3.9061860
2.289690	4.0253620
2.292050	4.2405710
2.295970	4.6087530
2.299910	4.9950580
2.302010	5.2066260
2.304870	5.5030520
2.308430	5.8821180
2.310710	6.1328930
2.313170	6.4074860
2.313540	6.4505640
2.311460	6.2153690
2.309980	6.0515400
2.309440	5.9921740
2.308960	5.9402080
2.308390	5.8781290
2.308130	5.8500690
2.309240	5.9704640
2.309650	6.0153110
2.308270	5.8647860
2.308170	5.8537940
2.307050	5.7335890
2.304710	5.4866200
2.303930	5.4044900
2.303310	5.3407160
2.301850	5.1909620
2.301490	5.1535980
2.302670	5.2741200
2.304260	5.4386000
2.305470	5.5654370
2.306950	5.7238580
2.306410	5.6656560
2.304460	5.4591790
2.303960	5.4074430
2.303900	5.4006950
2.304020	5.4131650
2.304640	5.4776610
2.306220	5.6449480
2.306230	5.6467190
2.304580	5.4726190
2.303320	5.3410910
2.304580	5.4719450
2.307490	5.7801070
2.310690	6.1304830
2.311980	6.2730580
2.311720	6.2444420
2.311280	6.1955290
2.312350	6.3155910
2.314010	6.5035670
2.317790	6.9425040
2.323620	7.6451150
2.328590	8.2723440
2.330730	8.5495450
2.331900	8.7038890
2.333000	8.8491890
2.333830	8.9594390
2.334330	9.0273580
2.334340	9.0281700
2.334990	9.1162570
2.334520	9.0517590
2.332480	8.7811860
2.330840	8.5647690
2.330450	8.5130780
2.328820	8.3019780
2.328970	8.3204740
2.329630	8.4067750
2.327260	8.1021870
2.322580	7.5173320
2.315190	6.6387110
2.310490	6.1077670
2.312220	6.3012110
2.314380	6.5454190
2.313350	6.4283480
2.311280	6.1957340
2.311950	6.2708310
2.311820	6.2560230
2.310920	6.1552710
2.310600	6.1196310
2.311420	6.2117790
2.315720	6.7000430
2.320370	7.2478930
2.321850	7.4279950
2.322490	7.5066660
2.323620	7.6456740
2.324230	7.7204700
2.322900	7.5571390
2.322170	7.4671120
2.323670	7.6515730
2.327090	8.0803440
2.331750	8.6830840
2.335330	9.1612870
2.338390	9.5806100
2.341350	9.9959340
2.343250	10.2661590
2.343320	10.2758530
2.342100	10.1014580
2.340310	9.8476750
2.338570	9.6064860
2.335720	9.2157720
2.331310	8.6257760
2.328410	8.2491050
2.327720	8.1611910
2.328030	8.1996170
2.328590	8.2722060
2.329660	8.4093570
2.331790	8.6887910
2.333340	8.8951340
2.334040	8.9890490
2.335820	9.2280780
2.339700	9.7623780
2.345000	10.5175710
2.349000	11.1049230
2.351460	11.4753180
2.353880	11.8446460
2.356490	12.2492130
2.359370	12.7049970
2.362030	13.1319900
2.362960	13.2827660
2.360230	12.8430010
2.357390	12.3905910
2.355830	12.1475520
2.352820	11.6822090
2.348120	10.9743770
2.342430	10.1468890
2.338560	9.6036320
2.335990	9.2509020
2.335040	9.1222890
2.335520	9.1877630
2.336620	9.3368920
2.337630	9.4752890
2.338830	9.6415940
2.340210	9.8351490
2.341780	10.0559470
2.343950	10.3665090
2.345390	10.5745670
2.345750	10.6270220
2.343960	10.3677220
2.340770	9.9133850
2.340950	9.9385650
2.342800	10.2016570
2.344760	10.4827400
2.347340	10.8601920
2.348870	11.0858030
2.349060	11.1159250
2.350450	11.3227070
2.353440	11.7774120
2.357750	12.4482100
2.361890	13.1089460
2.364570	13.5466810
2.366020	13.7882200
2.367400	14.0168930
2.369180	14.3168750
2.370730	14.5804470
2.373800	15.1095270
2.378630	15.9603570
2.383550	16.8519380
2.388030	17.6840190
2.389910	18.0386220
2.389800	18.0198210
2.389590	17.9771000
2.390720	18.1929070
2.391750	18.3894710
2.391270	18.3000050
2.389130	17.8905350
2.386590	17.4159530
2.385700	17.2490500
2.384980	17.1156500
2.381760	16.5257190
2.375850	15.4668530
2.371780	14.7617610
2.370220	14.4939390
2.369740	14.4126430
2.369910	14.4404640
2.368990	14.2853200
2.367840	14.0914310
2.367690	14.0661930
2.365210	13.6527480
2.359200	12.6770600
2.354420	11.9279900
2.351350	11.4599600
2.346410	10.7234490
2.340810	9.9191970
2.337380	9.4417030
2.336290	9.2919230
2.334380	9.0334030
2.333360	8.8966030
2.334430	9.0402650
2.335500	9.1840520
2.334690	9.0756970
2.333400	8.9023640
2.332650	8.8031580
2.334150	9.0035990
2.336860	9.3700950
2.340530	9.8785310
2.343450	10.2937170
2.343500	10.3002050
2.344010	10.3746480
2.345120	10.5359780
2.343980	10.3701120
2.344060	10.3824660
2.349170	11.1303620
2.354970	12.0133150
2.357540	12.4138700
2.357950	12.4809680
2.359360	12.7033250
2.360140	12.8270030
2.358040	12.4946820
2.354270	11.9041410
2.351360	11.4603820
2.349330	11.1552500
2.346500	10.7363420
2.343400	10.2866820
2.341070	9.9559000
2.339670	9.7585790
2.337360	9.4392740
2.335040	9.1223350
2.333860	8.9637530
2.334830	9.0953100
2.338320	9.5709890
2.342830	10.2050700
2.346270	10.7030050
2.347050	10.8170670
2.344820	10.4922210
2.344470	10.4416690
2.345360	10.5692700
2.343860	10.3531320
2.341010	9.9464550
2.339610	9.7500890
2.338970	9.6616170
2.338550	9.6021890
2.340330	9.8508540
2.342180	10.1135230
2.342540	10.1638870
2.342090	10.0991580
2.341580	10.0273070
2.342090	10.1011120
2.341260	9.9820690
2.339890	9.7897380
2.341230	9.9780140
2.343960	10.3662780
2.344270	10.4131330
2.342390	10.1426750
2.340720	9.9057960
2.337120	9.4065510
2.330440	8.5119920
2.323840	7.6730750
2.320240	7.2326660
2.318660	7.0441990
2.317070	6.8570850
2.316350	6.7726830
2.317280	6.8815240
2.317690	6.9289260
2.320030	7.2078450
2.324460	7.7491090
2.327160	8.0900970
2.328290	8.2344720
2.329550	8.3949810
2.330860	8.5670640
2.332260	8.7513130
2.334320	9.0251780
2.335080	9.1287280
2.334860	9.0990210
2.335470	9.1810460
2.335030	9.1205790
2.334290	9.0223930
2.337170	9.4133160
2.342300	10.1301760
2.345770	10.6289490
2.347070	10.8197830
2.348560	11.0394520
2.349380	11.1634440
2.350010	11.2574920
2.351580	11.4935810
2.352500	11.6330700
2.352630	11.6528810
2.354350	11.9186330
2.356940	12.3214320
2.358910	12.6325980
2.361090	12.9804460
2.363180	13.3189500
2.364630	13.5568550
2.366640	13.8899780
2.368100	14.1348090
2.365880	13.7642510
2.361320	13.0185330
2.357910	12.4732110
2.356500	12.2519060
2.356930	12.3184990
2.357390	12.3916240
2.356370	12.2304510
2.354520	11.9440210
2.353900	11.8473860
2.356070	12.1830520
2.360160	12.8306860
2.362650	13.2346490
2.362680	13.2387090
2.362400	13.1923020
2.362480	13.2047970
2.362170	13.1559800
2.362440	13.1987490
2.362650	13.2334370
2.361010	12.9676530
2.358520	12.5696240
2.357040	12.3356750
2.355580	12.1092820
2.355290	12.0636910
2.355440	12.0865950
2.354500	11.9395080
2.354780	11.9838750
2.357530	12.4125160
2.361180	12.9953570
2.363370	13.3508240
2.364410	13.5217760
2.366310	13.8351910
2.368360	14.1795570
2.367880	14.0986620
2.366110	13.8028410
2.364080	13.4679170
2.362730	13.2465500
2.362420	13.1949890
2.363870	13.4324110
2.365820	13.7538710
2.365820	13.7539200
2.362850	13.2651010
2.360670	12.9121220
2.362480	13.2060150
2.365790	13.7481370
2.366960	13.9427320
2.366680	13.8973250
2.367360	14.0105270
2.368150	14.1437300
2.366150	13.8082510
2.362340	13.1828360
2.359040	12.6527210
2.356750	12.2901430
2.354080	11.8756230
2.350520	11.3339140
2.346560	10.7451610
2.344180	10.3984380
2.344980	10.5139800
2.346750	10.7722830
2.347400	10.8689450
2.349970	11.2507190
2.352390	11.6163800
2.351950	11.5500190
2.348680	11.0584330
2.345990	10.6615700
2.345830	10.6386740
2.345660	10.6139640
2.346590	10.7496680
2.349250	11.1431670
2.351790	11.5246730
2.353490	11.7856770
2.355770	12.1382620
2.356340	12.2266960
2.354210	11.8945200
2.350730	11.3653140
2.347740	10.9190610
2.345910	10.6495440
2.343680	10.3269550
2.343770	10.3407740
2.343480	10.2985850
2.339220	9.6950210
2.333910	8.9715160
2.330900	8.5725040
2.329370	8.3719300
2.326840	8.0489040
2.322900	7.5577270
2.318530	7.0291050
2.314770	6.5899180
2.312520	6.3343250
2.313420	6.4354520
2.315120	6.6294250
2.314630	6.5734660
2.314600	6.5714460
2.317780	6.9404310
2.321780	7.4193830
2.324260	7.7247870
2.325580	7.8899870
2.325550	7.8860280
2.324460	7.7507020
2.324480	7.7520250
2.326680	8.0283430
2.327840	8.1756080
2.327170	8.0908320
2.329170	8.3481110
2.332190	8.7418190
2.332470	8.7785690
2.333120	8.8656140
2.335090	9.1288400
2.336330	9.2978150
2.336580	9.3316710
2.338680	9.6210510
2.344240	10.4087900
2.347240	10.8447860
2.344770	10.4840170
2.340350	9.8553880
2.336570	9.3301530
2.334380	9.0341540
2.332230	8.7464450
2.326800	8.0433540
2.320530	7.2675330
2.316840	6.8294720
2.314670	6.5778150
2.314220	6.5269530
2.315280	6.6490170
2.313820	6.4811960
2.311040	6.1687470
2.311460	6.2162380
2.312540	6.3358530
2.311120	6.1775360
2.311320	6.1998260
2.312600	6.3441760
2.312230	6.3025630
2.310390	6.0965410
2.308370	5.8755670
2.307200	5.7493240
2.305860	5.6063660
2.306310	5.6548770
2.306790	5.7058470
2.306400	5.6650390
2.305370	5.5548610
2.303560	5.3660790
2.302980	5.3067090
2.304380	5.4518590
2.304870	5.5021900
2.302750	5.2827850
2.301940	5.1990820
2.304690	5.4827140
2.308770	5.9195490
2.312830	6.3698730
2.317110	6.8616860
2.320720	7.2909760
2.322770	7.5417100
2.324350	7.7356240
2.325870	7.9259470
2.325190	7.8399880
2.323160	7.5881660
2.323310	7.6075260
2.325760	7.9123300
2.327540	8.1376160
2.326510	8.0075620
2.325340	7.8598490
2.324740	7.7846810
2.322810	7.5455750
2.321170	7.3443150
2.320180	7.2252040
2.322110	7.4600900
2.323720	7.6580680
2.323090	7.5797850
2.323280	7.6027470
2.322120	7.4616720
2.319910	7.1931560
2.318580	7.0351340
2.317380	6.8923220
2.316570	6.7973830
2.316840	6.8304590
2.317150	6.8659890
2.316140	6.7483800
2.314310	6.5373180
2.314240	6.5287640
2.313630	6.4592950
2.311420	6.2112760
2.309060	5.9506130
2.307830	5.8173830
2.306680	5.6939700
2.306390	5.6632650
2.306840	5.7109590
2.306080	5.6306310
2.304880	5.5031970
2.304110	5.4230990
2.303580	5.3679790
2.303300	5.3393910
2.303800	5.3902970
2.302820	5.2897010
2.301780	5.1835290
2.302750	5.2831900
2.303990	5.4114830
2.305110	5.5276920
2.305400	5.5578110
2.304070	5.4187720
2.303020	5.3100020
2.301810	5.1863130
2.299920	4.9957050
2.297420	4.7494640
2.295910	4.6035030
2.296810	4.6888030
2.299940	4.9979830
2.302310	5.2368660
2.302020	5.2079100
2.301460	5.1505690
2.302240	5.2306130
2.303910	5.4023690
2.306880	5.7156300
2.312290	6.3082350
2.317520	6.9096970
2.320020	7.2070130
2.321390	7.3718620
2.323680	7.6529680
2.325460	7.8750400
2.324200	7.7175530
2.320820	7.3026840
2.317690	6.9285960
2.314020	6.5046760
2.310470	6.1051110
2.307410	5.7717480
2.305940	5.6157200
2.306320	5.6562470
2.308680	5.9087410
2.310640	6.1246500
2.309170	5.9633810
2.305330	5.5507740
2.303030	5.3112760
2.301900	5.1951910
2.299920	4.9950990
2.299100	4.9140750
2.301940	5.1993010
2.304790	5.4936270
2.305230	5.5408950
2.304630	5.4773880
2.304940	5.5101590
2.305550	5.5742480
2.306050	5.6266700
2.307490	5.7807760
2.308690	5.9105440
2.307280	5.7583810
2.304740	5.4892080
2.304830	5.4990590
2.306660	5.6920290
2.309090	5.9535080
2.312560	6.3384260
2.316600	6.8015610
2.319680	7.1665620
2.322410	7.4968060
2.325090	7.8278180
2.329910	8.4424050
2.335910	9.2400460
2.339720	9.7648990
2.340630	9.8933800
2.339340	9.7125690
2.337670	9.4813180
2.334970	9.1127940
2.331030	8.5896860
2.330130	8.4706010
2.332360	8.7634140
2.333210	8.8781490
2.335490	9.1842070
2.339580	9.7459440
2.342530	10.1625770
2.343520	10.3045330
2.345130	10.5367060
2.346570	10.7473230
2.344570	10.4539790
2.341780	10.0553650
2.341060	9.9534450
2.340570	9.8842470
2.338800	9.6376450
2.336190	9.2783940
2.335440	9.1764640
2.335240	9.1489500
2.332990	8.8483400
2.330100	8.4677400
2.331390	8.6370260
2.336370	9.3030040
2.339520	9.7378080
2.341740	10.0500490
2.343420	10.2894210
2.344070	10.3826890
2.341750	10.0520370
2.335560	9.1924690
2.328880	8.3100770
2.325160	7.8368940
2.323420	7.6202810
2.323560	7.6389910
2.325520	7.8825410
2.326550	8.0113990
2.328000	8.1961420
2.328410	8.2481470
2.327340	8.1125850
2.326110	7.9566660
2.326250	7.9737940
2.327580	8.1426320
2.328240	8.2274580
2.325680	7.9024180
2.321340	7.3652010
2.318820	7.0629470
2.317510	6.9080140
2.314650	6.5770440
2.312910	6.3787150
2.314790	6.5929830
2.317140	6.8644700
2.318190	6.9887850
2.320000	7.2037990
2.323280	7.6026610
2.327010	8.0700880
2.329130	8.3418430
2.328760	8.2940840
2.328150	8.2150900
2.326950	8.0630700
2.325830	7.9209540
2.326730	8.0348020
2.327280	8.1043940
2.327750	8.1654650
2.329270	8.3603720
2.329100	8.3375320
2.328160	8.2169830
2.330330	8.4973390
2.334120	8.9990450
2.337240	9.4227690
2.339890	9.7893570
2.343140	10.2504320
2.345620	10.6085810
2.346550	10.7439440
2.345480	10.5876640
2.342670	10.1815910
2.340080	9.8166890
2.337610	9.4740360
2.333530	8.9195380
2.329620	8.4051870
2.326540	8.0105620
2.324350	7.7364600
2.322890	7.5561430
2.322180	7.4693840
2.321020	7.3282390
2.319920	7.1948820
2.321020	7.3276990
2.325120	7.8321080
2.329330	8.3680790
2.331430	8.6423220
2.330700	8.5467440
2.331110	8.5998690
2.333370	8.8980350
2.334400	9.0357070
2.332640	8.8016990
2.329510	8.3915010
2.326390	7.9925780
2.322880	7.5545230
2.320740	7.2935670
2.319050	7.0913710
2.317290	6.8827110
2.316860	6.8313620
2.320740	7.2932430
2.327090	8.0806160
2.331200	8.6119550
2.331860	8.6975040
2.331380	8.6352180
2.330110	8.4700580
2.330360	8.5016480
2.330850	8.5655410
2.329440	8.3818580
2.328600	8.2745940
2.329750	8.4215520
2.332910	8.8373130
2.336710	9.3492390
2.339880	9.7879830
2.343050	10.2366860
2.346610	10.7525460
2.350810	11.3768970
2.353920	11.8503380
2.354490	11.9393460
2.352170	11.5821380
2.348120	10.9761710
2.343440	10.2929980
2.339390	9.7193250
2.334600	9.0639130
2.331770	8.6863870
2.331320	8.6262550
2.333090	8.8613520
2.334140	9.0006850
2.333390	8.9006430
2.332670	8.8055300
2.331980	8.7135830
2.331490	8.6491900
2.330730	8.5503010
2.330030	8.4581570
2.329700	8.4155790
2.327800	8.1699460
2.325470	7.8757570
2.325910	7.9313040
2.329440	8.3820120
2.332850	8.8297270
2.333550	8.9214870
2.334000	8.9830900
2.334620	9.0650370
2.335670	9.2078850
2.336340	9.3000350
2.337780	9.4966410
2.340410	9.8626170
2.341340	9.9928220
2.340490	9.8742620
2.339320	9.7100180
2.337590	9.4712670
2.334830	9.0946570
2.332720	8.8121420
2.332530	8.7871520
2.333220	8.8775970
2.333490	8.9142760
2.333190	8.8750410
2.332690	8.8071310
2.332260	8.7501190
2.333390	8.9010500
2.334610	9.0641420
2.332660	8.8035390
2.331540	8.6562150
2.333590	8.9279950
2.335070	9.1267720
2.335250	9.1511110
2.334680	9.0740710
2.334330	9.0261220
2.334540	9.0544420
2.336930	9.3802870
2.337590	9.4704900
2.336010	9.2531890
2.335410	9.1737560
2.335260	9.1524720
2.335020	9.1194240
2.335770	9.2221510
2.335790	9.2248740
2.335220	9.1465880
2.334770	9.0854770
2.333310	8.8899030
2.331070	8.5941700
2.331580	8.6609500
2.334850	9.0973630
2.336630	9.3383380
2.335400	9.1706300
2.333770	8.9522310
2.331520	8.6536670
2.329310	8.3659330
2.328900	8.3121060
2.326900	8.0559400
2.324860	7.7987990
2.324330	7.7332150
2.325140	7.8351040
2.324580	7.7635350
2.323920	7.6825200
2.325190	7.8412190
2.327280	8.1041000
2.329730	8.4202470
2.331030	8.5896630
2.331630	8.6676110
2.331310	8.6252390
2.331430	8.6414490
2.333480	8.9128380
2.334640	9.0687820
2.333470	8.9126120
2.330580	8.5307780
2.328760	8.2940860
2.327540	8.1379300
2.326560	8.0133010
2.324280	7.7271790
2.321730	7.4140510
2.320460	7.2599100
2.320500	7.2639620
2.318970	7.0816120
2.317760	6.9382880
2.319030	7.0887010
2.319750	7.1743610
2.319350	7.1269600
2.320180	7.2261850
2.323890	7.6790940
2.326830	8.0478290
2.325840	7.9227880
2.324300	7.7295760
2.324710	7.7803240
2.324920	7.8079330
2.325510	7.8811290
2.326830	8.0483510
2.327700	8.1588590
2.329040	8.3303340
2.331180	8.6081740
2.330950	8.5784910
2.329750	8.4217890
2.329610	8.4035660
2.329410	8.3784560
2.327260	8.1019110
2.326230	7.9721530
2.327020	8.0718440
2.328290	8.2338150
2.326680	8.0283100
2.323800	7.6675140
2.323410	7.6195890
2.323740	7.6607090
2.324510	7.7555110
2.326910	8.0567800
2.329940	8.4464960
2.331360	8.6332240
2.332640	8.8024110
2.334060	8.9910290
2.335870	9.2354170
2.336470	9.3166670
2.335550	9.1919580
2.334760	9.0848040
2.333300	8.8890310
2.333010	8.8509760
2.338260	9.5638650
2.344420	10.4334300
2.346670	10.7610530
2.348730	11.0654700
2.351760	11.5215380
2.352680	11.6598870
2.349870	11.2346550
2.348240	10.9928100
2.349300	11.1503800
2.348730	11.0657350
2.343920	10.3622290
2.341940	10.0777600
2.343660	10.3240660
2.343950	10.3669410
2.343940	10.3641340
2.345910	10.6500810
2.345410	10.5772980
2.343640	10.3220030
2.346110	10.6798060
2.347680	10.9106340
2.347030	10.8129800
2.347110	10.8267090
2.349000	11.1065980
2.350970	11.4012600
2.353330	11.7604710
2.356310	12.2219310
2.358690	12.5963570
2.360590	12.9003910
2.361550	13.0552770
2.362900	13.2742800
2.362300	13.1756290
2.359660	12.7508850
2.357690	12.4379010
2.360310	12.8555390
2.364460	13.5298840
2.365520	13.7034000
2.365920	13.7705650
2.366670	13.8967650
2.363810	13.4220540
2.357290	12.3771990
2.351010	11.4068490
2.348370	11.0118890
2.347230	10.8442490
2.345340	10.5680690
2.342210	10.1165430
2.339470	9.7314740
2.337410	9.4450720
2.334840	9.0960330
2.332720	8.8122670
2.329960	8.4489670
2.328720	8.2884800
2.329610	8.4035780
2.329700	8.4155960
2.327570	8.1419540
2.326670	8.0265250
2.328660	8.2818260
2.332890	8.8351830
2.337540	9.4630000
2.341370	9.9987550
2.341150	9.9673680
2.337750	9.4931330
2.334330	9.0264560
2.331470	8.6480290
2.328860	8.3075870
2.325870	7.9261790
2.323760	7.6625960
2.323170	7.5891860
2.323730	7.6582470
2.325810	7.9182160
2.327060	8.0759300
2.324970	7.8138360
2.322130	7.4622340
2.322560	7.5152510
2.325430	7.8703890
2.326950	8.0615840
2.328120	8.2117470
2.328890	8.3114660
2.327710	8.1603940
2.326710	8.0324530
2.325320	7.8574200
2.323660	7.6505000
2.322390	7.4945160
2.322070	7.4544080
2.322390	7.4939800
2.323020	7.5712830
2.322840	7.5489820
2.323050	7.5746250
2.324110	7.7069440
2.324690	7.7779370
2.326220	7.9696650
2.329540	8.3946020
2.331590	8.6621550
2.332240	8.7484290
2.331280	8.6213840
2.329760	8.4243020
2.327910	8.1842920
2.325360	7.8623960
2.321130	7.3406860
2.315210	6.6418760
2.311300	6.1977660
2.308830	5.9259810
2.307900	5.8242510
2.309060	5.9511390
2.310610	6.1218260
2.311710	6.2438540
2.312250	6.3036210
2.310760	6.1374340
2.309020	5.9467250
2.309380	5.9859710
2.312220	6.3002500
2.314070	6.5104780
2.314030	6.5057250
2.315130	6.6314540
2.318200	6.9890610
2.321860	7.4284750
2.325500	7.8798300
2.329800	8.4281290
2.332710	8.8098390
2.333550	8.9219330
2.336910	9.3771570
2.342120	10.1035820
2.345520	10.5928420
2.345160	10.5405290
2.343040	10.2353600
2.343820	10.3467550
2.346540	10.7410140
2.347890	10.9407430
2.347030	10.8143120
2.346090	10.6756910
2.346580	10.7476400
2.348160	10.9809150
2.349450	11.1725070
2.349600	11.1962370
2.348540	11.0380580
2.347900	10.9423630
2.350420	11.3187750
2.354790	11.9848460
2.357290	12.3753200
2.358080	12.4993540
2.358110	12.5051640
2.358070	12.4974390
2.356990	12.3280140
2.355960	12.1674520
2.357890	12.4708370
2.361230	13.0032170
2.363650	13.3957170
2.365520	13.7037390
2.367630	14.0560350
2.371050	14.6357560
2.374530	15.2366560
2.377810	15.8136050
2.382120	16.5900330
2.385240	17.1621070
2.385450	17.2008380
2.384450	17.0185790
2.381830	16.5363330
2.376580	15.5969500
2.372280	14.8454170
2.369560	14.3805020
2.364830	13.5906220
2.358430	12.5551710
2.352350	11.6100810
2.348440	11.0228200
2.348050	10.9650180
2.348010	10.9588740
2.345460	10.5845730
2.341980	10.0842740
2.339850	9.7845670
2.338060	9.5352980
2.334780	9.0881410
2.331120	8.6002550
2.328910	8.3143690
2.325660	7.8992530
2.321820	7.4248670
2.320490	7.2634680
2.320650	7.2826720
2.318900	7.0732600
2.316920	6.8387660
2.316140	6.7486310
2.315350	6.6563440
2.316580	6.7992840
2.318210	6.9911660
2.318640	7.0412410
2.320440	7.2571970
2.322400	7.4943510
2.325350	7.8614690
2.328940	8.3181410
2.330850	8.5665600
2.334060	8.9906650
2.339800	9.7760160
2.343300	10.2729930
2.345380	10.5723510
2.347820	10.9312620
2.349440	11.1715160
2.350280	11.2978620
2.350960	11.3997110
2.349880	11.2374460
2.348420	11.0197540
2.347970	10.9521550
2.347590	10.8963050
2.347600	10.8972320
2.348810	11.0780280
2.350540	11.3358920
2.351350	11.4578000
2.352870	11.6903900
2.353730	11.8217610
2.353490	11.7839140
2.353370	11.7669180
2.353640	11.8078010
2.354250	11.9015250
2.356460	12.2458930
2.358220	12.5212550
2.357030	12.3341080
2.355590	12.1092410
2.355990	12.1721840
2.357030	12.3357530
2.357090	12.3441350
2.357510	12.4102700
2.357290	12.3763010
2.357390	12.3920420
2.357360	12.3860670
2.356230	12.2103210
2.355400	12.0798650
2.354950	12.0111580
2.355250	12.0578070
2.355430	12.0842360
2.355910	12.1594860
2.357170	12.3565840
2.357070	12.3398760
2.357150	12.3537940
2.357950	12.4796870
2.357580	12.4203930
2.355530	12.1007280
2.353040	11.7159620
2.351260	11.4459680
2.349750	11.2180050
2.347280	10.8516540
2.345370	10.5715870
2.343440	10.2929050
2.341250	9.9804900
2.337370	9.4403640
2.332540	8.7887610
2.328880	8.3091380
2.328760	8.2945810
2.330030	8.4590270
2.330990	8.5831350
2.333480	8.9133790
2.336580	9.3314700
2.337160	9.4116010
2.335820	9.2279780
2.334160	9.0038370
2.333510	8.9174500
2.335300	9.1577630
2.339060	9.6739090
2.341720	10.0472210
2.341700	10.0446940
2.340850	9.9253540
2.342260	10.1229700
2.344030	10.3774670
2.345160	10.5397230
2.344500	10.4448900
2.344830	10.4934560
2.345960	10.6568310
2.345150	10.5400990
2.344850	10.4954600
2.345690	10.6184760
2.344750	10.4820430
2.344330	10.4215170
2.346090	10.6761880
2.346990	10.8075190
2.346640	10.7563180
2.347080	10.8220200
2.348360	11.0115280
2.352240	11.5941190
2.355850	12.1502050
2.357540	12.4149590
2.359460	12.7205250
2.363270	13.3341880
2.366020	13.7869580
2.367010	13.9523940
2.368530	14.2070100
2.370060	14.4668640
2.369050	14.2934420
2.366150	13.8077480
2.362460	13.2024900
2.357300	12.3779010
2.354450	11.9338870
2.353250	11.7491600
2.351410	11.4675870
2.349340	11.1562410
2.347540	10.8891020
2.344660	10.4677350
2.342690	10.1852670
2.343000	10.2295460
2.343210	10.2599520
2.342370	10.1401080
2.341240	9.9796150
2.341630	10.0355200
2.342080	10.0993340
2.340550	9.8811690
2.337630	9.4749550
2.335140	9.1359830
2.333960	8.9776980
2.335250	9.1498780
2.337080	9.4011810
2.338630	9.6135080
2.341080	9.9563690
2.345290	10.5591540
2.348070	10.9680410
2.349030	11.1107120
2.348630	11.0514120
2.347640	10.9036070
2.346850	10.7873410
2.347080	10.8203550
2.347720	10.9160860
2.348490	11.0299010
2.348030	10.9612530
2.345840	10.6409920
2.344680	10.4712680
2.345860	10.6427470
2.347710	10.9155180
2.348400	11.0166250
2.348760	11.0701740
2.348850	11.0832200
2.348060	10.9657140
2.346110	10.6795680
2.343640	10.3214790
2.340580	9.8853810
2.335600	9.1981560
2.330470	8.5152930
2.329010	8.3258970
2.328980	8.3227920
2.327560	8.1397320
2.327130	8.0861880
2.327770	8.1663800
2.326590	8.0168840
2.326030	7.9457370
2.328260	8.2294710
2.329610	8.4034610
2.330120	8.4701640
2.331690	8.6758310
2.333550	8.9225570
2.335780	9.2225400
2.339240	9.6983910
2.341730	10.0482770
2.341020	9.9474520
2.339810	9.7785220
2.338810	9.6385750
2.339580	9.7466120
2.341680	10.0422250
2.342110	10.1030370
2.340810	9.9192990
2.340970	9.9418890
2.341110	9.9618430
2.340080	9.8162340
2.340730	9.9081200
2.343550	10.3085230
2.346270	10.7035880
2.350240	11.2912450
2.354830	11.9920410
2.357240	12.3668720
2.355360	12.0737160
2.353850	11.8403590
2.353150	11.7331150
2.351770	11.5230790
2.351300	11.4503310
2.350610	11.3471230
2.347390	10.8678920
2.344640	10.4659730
2.345320	10.5638740
2.347790	10.9269990
2.350540	11.3357110
2.353080	11.7228480
2.356920	12.3182200
2.360740	12.9240010
2.363240	13.3295000
2.366950	13.9417990
2.371460	14.7059740
2.373900	15.1266480
2.375830	15.4638340
2.380990	16.3854050
2.386670	17.4294300
2.390350	18.1231650
2.392570	18.5490670
2.393560	18.7407320
2.393900	18.8052690
2.392680	18.5695900
2.390600	18.1706960
2.388940	17.8555850
2.387230	17.5338750
2.385580	17.2275700
2.384170	16.9650330
2.383610	16.8618240
2.382830	16.7193090
2.382640	16.6855790
2.380450	16.2867260
2.376160	15.5220560
2.372950	14.9616850
2.370470	14.5363040
2.367620	14.0527400
2.362850	13.2659850
2.357350	12.3859590
2.355230	12.0542470
2.354590	11.9538620
2.352960	11.7038380
2.351700	11.5107040
2.351640	11.5029100
2.351030	11.4101640
2.351140	11.4264400
2.353180	11.7377640
2.355970	12.1686830
2.357160	12.3551990
2.358470	12.5625770
2.360060	12.8160110
2.359400	12.7103750
2.358650	12.5895920
2.358260	12.5274420
2.359950	12.7985320
2.364640	13.5592250
2.368610	14.2192000
2.369920	14.4408990
2.369180	14.3177030
2.367260	13.9923710
2.366460	13.8592780
2.366090	13.7984020
2.364670	13.5644900
2.360330	12.8587990
2.355260	12.0571590
2.350660	11.3547400
2.346330	10.7107320
2.342930	10.2206190
2.337840	9.5048690
2.331250	8.6179480
2.327830	8.1745750
2.328120	8.2125320
2.329530	8.3933490
2.330500	8.5196490
2.331440	8.6434090
2.331780	8.6877950
2.332360	8.7638200
2.334080	8.9939870
2.335680	9.2100790
2.335520	9.1880940
2.334260	9.0175510
2.333170	8.8714240
2.332150	8.7359510
2.332060	8.7237920
2.333390	8.9014450
2.334600	9.0642660
2.337080	9.3999780
2.339890	9.7901750
2.339740	9.7682520
2.337270	9.4265230
2.336310	9.2953570
2.336330	9.2978570
2.335950	9.2458850
2.336320	9.2970560
2.337250	9.4236560
2.338040	9.5314430
2.337810	9.5018960
2.335800	9.2251360
2.332550	8.7882360
2.329770	8.4244190
2.329320	8.3674970
2.330940	8.5770830
2.330190	8.4799600
2.327320	8.1095920
2.325120	7.8324720
2.322550	7.5143270
2.320360	7.2472540
2.319710	7.1698870
2.320360	7.2479710
2.321340	7.3669070
2.322860	7.5523250
2.327190	8.0925870
2.332910	8.8360940
2.337780	9.4967140
2.339920	9.7936890
2.341010	9.9459790
2.343240	10.2646920
2.345270	10.5557170
2.345150	10.5392750
2.345760	10.6288570
2.347240	10.8460430
2.348680	11.0576590
2.350400	11.3158630
2.354190	11.8919420
2.356170	12.2010860
2.354380	11.9220010
2.350950	11.3990960
2.348610	11.0480540
2.348830	11.0809570
2.348210	10.9884170
2.348440	11.0219620
2.350560	11.3397450
2.351930	11.5467590
2.351780	11.5239550
2.352610	11.6496650
2.354110	11.8795840
2.354370	11.9205400
2.354350	11.9166950
2.355120	12.0370300
2.356700	12.2830190
2.358480	12.5640140
2.359400	12.7090960
2.360220	12.8413140
2.360770	12.9302440
2.361480	13.0433550
2.361930	13.1161830
2.361970	13.1224670
2.362400	13.1935530
2.360920	12.9530010
2.356780	12.2947920
2.353370	11.7665270
2.351820	11.5301300
2.352220	11.5906550
2.355800	12.1420750
2.360700	12.9175350
2.365000	13.6186880
2.367460	14.0282910
2.370380	14.5201820
2.374460	15.2255710
2.375850	15.4674450
2.372970	14.9659450
2.368730	14.2415520
2.365280	13.6650710
2.363180	13.3209550
2.361480	13.0437320
2.361440	13.0373310
2.363010	13.2908460
2.363390	13.3547500
2.362090	13.1418140
2.360390	12.8675950
2.356870	12.3094710
2.354330	11.9134870
2.352870	11.6901960
2.349840	11.2316980
2.347210	10.8406380
2.345960	10.6577110
2.343800	10.3448570
2.342650	10.1786400
2.343970	10.3683150
2.345580	10.6025150
2.346830	10.7837300
2.348230	10.9921090
2.350500	11.3300260
2.353190	11.7394020
2.356370	12.2313590
2.360330	12.8593240
2.363090	13.3053040
2.363480	13.3691900
2.362610	13.2260160
2.362550	13.2166560
2.364390	13.5173810
2.366160	13.8106330
2.366450	13.8593410
2.365320	13.6716700
2.364600	13.5519880
2.362880	13.2711550
2.361080	12.9803970
2.361130	12.9873240
2.360530	12.8902270
2.359460	12.7197350
2.359840	12.7795030
2.360830	12.9389650
2.360820	12.9370810
2.360170	12.8342750
2.358440	12.5567360
2.356500	12.2525360
2.356290	12.2192130
2.356750	12.2907930
2.356400	12.2361910
2.356380	12.2332710
2.358610	12.5836850
2.360880	12.9468660
2.360010	12.8075630
2.356170	12.1990510
2.353650	11.8087020
2.356310	12.2230820
2.358670	12.5933680
2.356800	12.3000170
2.355000	12.0173610
2.355080	12.0301440
2.355900	12.1582330
2.356890	12.3134590
2.357240	12.3671200
2.356920	12.3171290
2.357780	12.4514070
2.360250	12.8463390
2.362180	13.1564620
2.361830	13.1012780
2.361030	12.9705510
2.361610	13.0651740
2.363110	13.3076640
2.366350	13.8424150
2.369030	14.2925640
2.371610	14.7318840
2.374190	15.1778260
2.373830	15.1144410
2.370480	14.5381690
2.367210	13.9842190
2.364870	13.5962940
2.362790	13.2571400
2.361490	13.0456500
2.359290	12.6931720
2.355940	12.1637310
2.354700	11.9717490
2.356220	12.2078490
2.357190	12.3599390
2.356540	12.2576990
2.354450	11.9336800
2.355040	12.0254360
2.356910	12.3167270
2.358300	12.5345550
2.359250	12.6862270
2.357810	12.4583060
2.356230	12.2098110
2.355740	12.1342570
2.354640	11.9626930
2.352160	11.5812490
2.351070	11.4174850
2.349920	11.2442460
2.349590	11.1944890
2.351420	11.4696930
2.353420	11.7739720
2.356330	12.2253480
2.358570	12.5777690
2.358850	12.6220150
2.359100	12.6611730
2.357850	12.4628510
2.355880	12.1543920
2.354710	11.9729800
2.355400	12.0794160
2.357340	12.3842740
2.358130	12.5081140
2.357450	12.4009810
2.358440	12.5571340
2.360720	12.9221260
2.362170	13.1551460
2.362210	13.1618070
2.361250	13.0074520
2.361190	12.9956090
2.364180	13.4822610
2.366350	13.8406050
2.366200	13.8159760
2.367360	14.0109530
2.372300	14.8500850
2.377340	15.7308520
2.379900	16.1887360
2.381000	16.3883840
2.380510	16.2989370
2.380560	16.3075620
2.380120	16.2268310
2.379940	16.1947080
2.380880	16.3662870
2.382180	16.6006640
2.382470	16.6535890
2.382990	16.7489590
2.382990	16.7492980
2.381630	16.5015700
2.378600	15.9552560
2.376110	15.5134890
2.375840	15.4662180
2.377480	15.7561260
2.379620	16.1372830
2.382140	16.5953620
2.384510	17.0290300
2.388260	17.7278650
2.392980	18.6274380
2.396250	19.2648430
2.395340	19.0865690
2.392670	18.5670600
2.392000	18.4379370
2.394220	18.8681180
2.397420	19.4942630
2.399020	19.8110370
2.397710	19.5513080
2.395940	19.2022900
2.395560	19.1273990
2.395530	19.1246760
2.394940	19.0086380
2.392310	18.4975740
2.387420	17.5694390
2.382090	16.5844940
2.376660	15.6111410
2.372590	14.8996920
2.372610	14.9020070
2.375040	15.3250340
2.376270	15.5427870
2.378340	15.9085480
2.382670	16.6893840
2.385150	17.1464900
2.384390	17.0073740
2.381020	16.3904740
2.377190	15.7040030
2.375920	15.4809250
2.374840	15.2906060
2.372280	14.8462440
2.370990	14.6261430
2.370630	14.5645910
2.369890	14.4385920
2.370970	14.6208350
2.371640	14.7365540
2.371000	14.6263570
2.371750	14.7560170
2.371110	14.6445190
2.370220	14.4940590
2.371490	14.7094920
2.371760	14.7577130
2.370490	14.5406290
2.367900	14.1017680
2.363570	13.3832470
2.359670	12.7530320
2.357960	12.4809030
2.358830	12.6180410
2.361830	13.0996570
2.364340	13.5088730
2.364340	13.5108160
2.364680	13.5652260
2.366390	13.8494650
2.364160	13.4795790
2.360100	12.8220100
2.359200	12.6773900
2.359390	12.7082830
2.357210	12.3639380
2.353920	11.8517290
2.353140	11.7324550
2.356560	12.2620600
2.359410	12.7124870
2.360480	12.8815570
2.361290	13.0130930
2.364040	13.4602830
2.367850	14.0922350
2.371480	14.7073580
2.373200	15.0045570
2.372900	14.9525370
2.372290	14.8480560
2.371270	14.6729150
2.369620	14.3910130
2.366260	13.8265910
2.360810	12.9365020
2.356530	12.2561070
2.354330	11.9131130
2.354700	11.9710850
2.355550	12.1028890
2.355680	12.1225280
2.355570	12.1064180
2.360180	12.8348750
2.366930	13.9391430
2.371240	14.6668640
2.373740	15.0992030
2.374800	15.2847840
2.375490	15.4057110
2.376110	15.5135530
2.376640	15.6075590
2.375510	15.4067790
2.374700	15.2659590
2.373790	15.1089860
2.372310	14.8501880
2.370200	14.4891540
2.367850	14.0920690
2.368150	14.1428440
2.369160	14.3125440
2.367440	14.0234860
2.365860	13.7611630
2.366880	13.9307280
2.367690	14.0661240
2.368330	14.1730370
2.369920	14.4426800
2.372720	14.9222260
2.376320	15.5501240
2.378860	16.0005000
2.380280	16.2562330
2.382170	16.5986060
2.381450	16.4680900
2.378460	15.9300140
2.377730	15.7997440
2.381000	16.3876380
2.384440	17.0144410
2.385860	17.2775000
2.387140	17.5179940
2.387970	17.6744460
2.389990	18.0550820
2.393520	18.7313940
2.396630	19.3388980
2.399960	19.9982260
2.403640	20.7419970
2.407160	21.4663310
2.410950	22.2555680
2.413700	22.8402270
2.416890	23.5279540
2.420230	24.2585260
2.421040	24.4365430
2.420750	24.3716550
2.420420	24.3017020
2.418760	23.9362130
2.417640	23.6926160
2.417450	23.6498050
2.415980	23.3328090
2.413910	22.8866250
2.410560	22.1762140
2.404560	20.9289360
2.400110	20.0303780
2.399000	19.8076170
2.399740	19.9547840
2.400820	20.1724430
2.400150	20.0373040
2.395760	19.1666740
2.389460	17.9551640
2.384470	17.0215360
2.381780	16.5285700
2.380750	16.3416940
2.379140	16.0529980
2.375100	15.3349480
2.369670	14.4004990
2.364440	13.5252700
2.361020	12.9701020
2.359470	12.7210040
2.358340	12.5413220
2.356680	12.2804580
2.355450	12.0866030
2.354550	11.9488100
2.352200	11.5883280
2.349000	11.1050580
2.348190	10.9854310
2.349290	11.1486270
2.349260	11.1450710
2.345920	10.6522650
2.341610	10.0307030
2.337590	9.4693730
2.334840	9.0961300
2.333630	8.9336030
2.333350	8.8949350
2.333150	8.8691970
2.334620	9.0669450
2.335670	9.2076470
2.332450	8.7759630
2.329420	8.3795290
2.330340	8.4994390
2.332560	8.7911010
2.334700	9.0768520
2.338000	9.5279520
2.342800	10.2012380
2.347290	10.8516260
2.351930	11.5474240
2.356730	12.2882810
2.360470	12.8799930
2.361400	13.0306030
2.361390	13.0292790
2.363130	13.3104020
2.365740	13.7403110
2.368480	14.1996190
2.372350	14.8572590
2.375590	15.4223960
2.378250	15.8917700
2.380380	16.2746580
2.382500	16.6601600
2.384650	17.0550270
2.385540	17.2193090
2.386000	17.3048860
2.386320	17.3654120
2.386570	17.4100490
2.385320	17.1773970
2.383080	16.7654910
2.383180	16.7825360
2.385200	17.1568160
2.388990	17.8663600
2.393510	18.7303410
2.394780	18.9770090
2.392090	18.4565830
2.389350	17.9335770
2.385360	17.1866630
2.381930	16.5555130
2.379110	16.0450880
2.374350	15.2053500
2.369310	14.3387490
2.367610	14.0524720
2.369590	14.3862420
2.373000	14.9698390
2.374370	15.2082140
2.373160	14.9976220
2.372390	14.8647500
2.373560	15.0688710
2.376310	15.5500730
2.377360	15.7339900
2.373890	15.1249490
2.369540	14.3770000
2.366690	13.8981880
2.364970	13.6135760
2.364490	13.5353040
2.367520	14.0369000
2.372860	14.9452710
2.375920	15.4786300
2.376960	15.6641130
2.376920	15.6575820
2.376160	15.5223010
2.373940	15.1340340
2.372980	14.9670930
2.373400	15.0403640
2.372830	14.9406880
2.372420	14.8712960
2.373500	15.0579720
2.375470	15.4005940
2.376430	15.5707080
2.376820	15.6395270
2.377770	15.8068130
2.378550	15.9454700
2.379550	16.1257860
2.377740	15.8022140
2.373670	15.0867390
2.371450	14.7043640
2.373200	15.0055910
2.374680	15.2635820
2.373390	15.0392070
2.371500	14.7123270
2.369290	14.3363450
2.366370	13.8447910
2.363770	13.4171360
2.361270	13.0095220
2.360090	12.8203310
2.358300	12.5349090
2.354860	11.9974100
2.352660	11.6571950
2.349770	11.2205750
2.347630	10.9024280
2.347870	10.9384900
2.348410	11.0185160
2.347390	10.8670280
2.349540	11.1870780
2.356310	12.2218690
2.362210	13.1622060
2.363310	13.3415480
2.363050	13.2983390
2.364890	13.6003610
2.365600	13.7171830
2.365800	13.7503890
2.367210	13.9850320
2.367920	14.1043470
2.366400	13.8509810
2.362860	13.2683930
2.359980	12.8018890
2.357250	12.3693180
2.353350	11.7642430
2.349880	11.2381110
2.346180	10.6903970
2.341170	9.9687860
2.336930	9.3797650
2.335500	9.1845950
2.335540	9.1908450
2.335220	9.1465400
2.334350	9.0299430
2.335020	9.1207540
2.338330	9.5726810
2.342340	10.1353040
2.344510	10.4474040
2.344680	10.4716490
2.343710	10.3306290
2.344310	10.4178530
2.346080	10.6751740
2.346070	10.6729880
2.345620	10.6078000
2.346430	10.7269960
2.347100	10.8232690
2.347430	10.8733590
2.346620	10.7542430
2.346250	10.7003970
2.346210	10.6941480
2.346070	10.6739760
2.348920	11.0943320
2.353170	11.7359220
2.353520	11.7884290
2.351860	11.5361990
2.353430	11.7757830
2.356760	12.2926050
2.359340	12.7003440
2.364090	13.4672800
2.368190	14.1493660
2.369610	14.3893940
2.369010	14.2893270
2.368000	14.1167960
2.368030	14.1241300
2.366220	13.8195920
2.363320	13.3420880
2.361160	12.9914320
2.358060	12.4978360
2.354310	11.9115800
2.352270	11.5990350
2.350860	11.3843110
2.349600	11.1950460
2.350120	11.2742370
2.352040	11.5631060
2.353600	11.8012180
2.356100	12.1891340
2.356630	12.2708090
2.353170	11.7359590
2.349460	11.1737460
2.348240	10.9930650
2.347690	10.9117130
2.346040	10.6690960
2.344190	10.4018140
2.343250	10.2652970
2.343790	10.3441160
2.345730	10.6238440
2.347410	10.8697490
2.347460	10.8781310
2.347170	10.8335810
2.347740	10.9185540
2.349580	11.1923860
2.350220	11.2888200
2.351310	11.4529550
2.355090	12.0320440
2.358490	12.5649220
2.363460	13.3660110
2.370320	14.5111680
2.375790	15.4585510
2.378500	15.9374940
2.380420	16.2836360
2.383240	16.7942920
2.386410	17.3805100
2.389970	18.0511530
2.393840	18.7936610
2.396850	19.3825090
2.397680	19.5443460
2.396900	19.3933240
2.395700	19.1559890
2.393820	18.7904430
2.390850	18.2183420
2.388390	17.7517300
2.386040	17.3117200
2.384140	16.9597660
2.381970	16.5628990
2.381600	16.4948220
2.383870	16.9114670
2.385730	17.2543560
2.384740	17.0711380
2.384620	17.0493560
2.389000	17.8669910
2.394130	18.8503150
2.397030	19.4179940
2.398710	19.7497960
2.400640	20.1365110
2.402300	20.4687290
2.402330	20.4771520
2.401490	20.3061490
2.399780	19.9619620
2.398380	19.6852760
2.399010	19.8086490
2.401010	20.2096310
2.402170	20.4429780
2.402600	20.5307790
2.403560	20.7268580
2.405610	21.1459240
2.406340	21.2941780
2.404860	20.9919320
2.404560	20.9307000
2.404370	20.8902720
2.402380	20.4846100
2.400020	20.0106770
2.397970	19.6024150
2.394210	18.8668980
2.388050	17.6886860
2.380620	16.3199250
2.376820	15.6382350
2.376660	15.6096540
2.377340	15.7309020
2.378340	15.9073380
2.380300	16.2593480
2.380670	16.3278390
2.379240	16.0682470
2.378780	15.9886930
2.378950	16.0177820
2.378540	15.9438890
2.378590	15.9536780
2.380360	16.2710060
2.382740	16.7034650
2.383510	16.8436660
2.381660	16.5062980
2.379210	16.0643230
2.378230	15.8883890
2.378640	15.9613670
2.380090	16.2233200
2.380960	16.3796010
2.382100	16.5870970
2.383610	16.8623790
2.383760	16.8901180
2.383170	16.7819440
2.382880	16.7299770
2.384530	17.0331150
2.388460	17.7655750
2.392530	18.5409620
2.394910	19.0031910
2.396910	19.3926620
2.398730	19.7530310
2.399860	19.9785540
2.402500	20.5098170
2.405400	21.1030270
2.407410	21.5177330
2.407130	21.4587250
2.406990	21.4304640
2.405500	21.1226290
2.400650	20.1372240
2.394680	18.9576490
2.390290	18.1130100
2.388470	17.7667480
2.387500	17.5844940
2.385350	17.1842500
2.381710	16.5154500
2.378110	15.8679900
2.374760	15.2777490
2.371850	14.7727670
2.369120	14.3071120
2.366950	13.9433030
2.370690	14.5734260
2.376180	15.5262840
2.379740	16.1600610
2.382490	16.6593270
2.383850	16.9065230
2.383270	16.7990670
2.381770	16.5258920
2.381880	16.5466920
2.384000	16.9356190
2.386320	17.3638380
2.388240	17.7236230
2.391160	18.2796340
2.394710	18.9634020
2.398900	19.7872300
2.399600	19.9269940
2.398110	19.6301610
2.397610	19.5327820
2.397410	19.4924370
2.397950	19.5985910
2.400130	20.0335710
2.401310	20.2704790
2.402560	20.5236700
2.406160	21.2580220
2.408060	21.6506200
2.410160	22.0897870
2.413320	22.7620720
2.415250	23.1722560
2.414800	23.0766430
2.415050	23.1314960
2.416000	23.3358230
2.417100	23.5740910
2.416350	23.4107460
2.415390	23.2057530
2.413820	22.8669220
2.411930	22.4652540
2.409280	21.9066370
2.405360	21.0940990
2.402010	20.4112610
2.400040	20.0155890
2.396900	19.3902190
2.392450	18.5262150
2.389490	17.9604570
2.388790	17.8281420
2.389410	17.9457090
2.388640	17.7977870
2.385370	17.1862960
2.382720	16.6993690
2.383510	16.8442400
2.385900	17.2848530
2.387150	17.5199890
2.386640	17.4243580
2.386570	17.4105990
2.388670	17.8052480
2.388770	17.8231600
2.386860	17.4649980
2.384420	17.0121560
2.382130	16.5924210
2.378650	15.9641530
2.377020	15.6743650
2.379490	16.1144790
2.381890	16.5491180
2.381730	16.5188120
2.381080	16.4016630
2.381970	16.5629430
2.382470	16.6540090
2.381420	16.4615960
2.378100	15.8669440
2.375150	15.3451420
2.374760	15.2769370
2.374310	15.1987990
2.373220	15.0093260
2.375410	15.3915440
2.379120	16.0490150
2.382010	16.5703260
2.384440	17.0159550
2.387240	17.5361040
2.390090	18.0734230
2.391210	18.2868140
2.390680	18.1872580
2.388720	17.8149110
2.386270	17.3541280
2.384870	17.0949650
2.383920	16.9204220
2.383620	16.8654290
2.385980	17.3012260
2.388970	17.8599260
2.392110	18.4604930
2.394460	18.9140700
2.395870	19.1912160
2.395930	19.2019410
2.395160	19.0516680
2.392910	18.6142580
2.389740	18.0071830
2.387340	17.5554920
2.384590	17.0433790
2.381840	16.5385890
2.378920	16.0127010
2.377990	15.8467050
2.379700	16.1517010
2.382670	16.6910210
2.383720	16.8827860
2.382400	16.6421870
2.381080	16.4018520
2.380210	16.2451570
2.381400	16.4608730
2.382480	16.6559410
2.382350	16.6320950
2.383000	16.7506770
2.383710	16.8812960
2.384360	17.0002980
2.386750	17.4445270
2.390050	18.0667670
2.393590	18.7459180
2.399050	19.8175960
2.404680	20.9538480
2.409410	21.9328670
2.412340	22.5517080
2.415280	23.1793440
2.418840	23.9525490
2.421600	24.5608630
2.422310	24.7186180
2.420860	24.3987810
2.417670	23.6969530
2.414520	23.0165560
2.411160	22.3024710
2.408820	21.8107810
2.407930	21.6236310
2.406860	21.4036750
2.406470	21.3213500
2.407590	21.5543860
2.407070	21.4468480
2.406040	21.2325170
2.406790	21.3879590
2.406430	21.3131050
2.402820	20.5747680
2.399050	19.8178520
2.395590	19.1344570
2.393810	18.7877920
2.393370	18.7025240
2.394200	18.8642480
2.396320	19.2775900
2.397370	19.4843240
2.394530	18.9289680
2.391790	18.3994030
2.390470	18.1449760
2.390640	18.1779900
2.391030	18.2533800
2.392180	18.4729060
2.394670	18.9567130
2.396480	19.3097360
2.398320	19.6723190
2.399980	20.0021510
2.399300	19.8674950
2.395580	19.1334360
2.391660	18.3744790
2.387950	17.6678710
2.385140	17.1457210
2.380820	16.3538110
2.375990	15.4907860
2.373210	15.0071950
2.371010	14.6284230
2.367810	14.0864150
2.366750	13.9093010
2.366740	13.9080330
2.363770	13.4155820
2.360480	12.8826890
2.360350	12.8622370
2.360650	12.9100890
2.359130	12.6672790
2.356650	12.2754920
2.355810	12.1439040
2.357120	12.3497450
2.358650	12.5909540
2.358640	12.5883470
2.359090	12.6604770
2.360890	12.9479990
2.363480	13.3691880
2.366560	13.8772020
2.369830	14.4261050
2.373410	15.0419460
2.378120	15.8693730
2.382520	16.6638660
2.385330	17.1801170
2.386750	17.4449520
2.387420	17.5687030
2.385590	17.2283000
2.381540	16.4848140
2.379030	16.0320570
2.379550	16.1252000
2.380000	16.2066080
2.379390	16.0973930
2.380850	16.3602940
2.380780	16.3462700
2.378340	15.9097260
2.376360	15.5586720
2.373880	15.1228850
2.370850	14.6021100
2.368950	14.2779580
2.367040	13.9585350
2.365850	13.7585330
2.366460	13.8604280
2.367270	13.9946920
2.366160	13.8106470
2.364090	13.4688830
2.363900	13.4376720
2.364200	13.4861050
2.361720	13.0826780
2.358650	12.5910770
2.358030	12.4912150
2.360270	12.8493420
2.363250	13.3316530
2.366240	13.8229680
2.367310	14.0021210
2.366890	13.9325940
2.366650	13.8917690
2.364920	13.6058850
2.362860	13.2665880
2.363370	13.3504920
2.365160	13.6447270
2.366400	13.8508200
2.366130	13.8054850
2.366190	13.8165840
2.366170	13.8117480
2.365400	13.6850120
2.363720	13.4081750
2.360030	12.8102410
2.355520	12.0978740
2.352390	11.6162690
2.351410	11.4686100
2.350020	11.2584250
2.346930	10.7997710
2.342750	10.1935180
2.339590	9.7474760
2.338140	9.5472960
2.337340	9.4349780
2.336060	9.2618560
2.334970	9.1133260
2.335510	9.1874120
2.335990	9.2508960
2.335640	9.2034210
2.335730	9.2166420
2.336060	9.2606840
2.338370	9.5780930
2.343340	10.2790710
2.348580	11.0441720
2.351450	11.4748680
2.353000	11.7103590
2.354670	11.9675390
2.357050	12.3376760
2.359320	12.6981930
2.360170	12.8335490
2.359760	12.7685120
2.359220	12.6809510
2.359080	12.6586330
2.358540	12.5731430
2.357920	12.4742150
2.358400	12.5508000
2.359660	12.7514790
2.357850	12.4637820
2.355380	12.0769520
2.354040	11.8692870
2.354270	11.9041350
2.354660	11.9656560
2.354300	11.9106610
2.352930	11.6996530
2.351690	11.5104840
2.351430	11.4715900
2.353280	11.7533570
2.356180	12.2006390
2.357200	12.3619290
2.357400	12.3929710
2.356990	12.3298830
2.356030	12.1791990
2.354950	12.0095550
2.354840	11.9934920
2.355760	12.1357540
2.354020	11.8658660
2.350100	11.2697230
2.345450	10.5826350
2.342610	10.1739780
2.342520	10.1610930
2.341890	10.0714760
2.339360	9.7161910
2.337580	9.4687050
2.337050	9.3968470
2.336780	9.3600020
2.336560	9.3285470
2.337180	9.4139970
2.338370	9.5778360
2.340870	9.9268080
2.345610	10.6054510
2.352210	11.5894410
2.358890	12.6283480
2.364310	13.5051820
2.368440	14.1911260
2.372710	14.9213280
2.376470	15.5787920
2.378930	16.0147130
2.381920	16.5531040
2.384620	17.0499860
2.384060	16.9446410
2.380510	16.2993240
2.376710	15.6179660
2.371710	14.7477690
2.367070	13.9621550
2.363440	13.3623340
2.360970	12.9607530
2.357890	12.4701490
2.352890	11.6920900
2.349350	11.1585970
2.347160	10.8331740
2.345480	10.5867940
2.344340	10.4233090
2.343620	10.3184940
2.344420	10.4337570
2.346500	10.7363360
2.349240	11.1410980
2.351710	11.5138650
2.353850	11.8401790
2.355520	12.0996740
2.355030	12.0225410
2.354200	11.8942140
2.351860	11.5365280
2.346010	10.6656220
2.339160	9.6864220
2.332970	8.8457070
2.329760	8.4242620
2.329710	8.4174800
2.331970	8.7132160
2.333810	8.9572670
2.333170	8.8714100
2.330350	8.4999350
2.327670	8.1543420
2.327550	8.1388720
2.330070	8.4627710
2.330750	8.5526140
2.330450	8.5126130
2.331800	8.6908890
2.331600	8.6641330
2.331080	8.5966670
2.332280	8.7540610
2.331430	8.6416850
2.330460	8.5151150
2.332170	8.7396120
2.334790	9.0897920
2.336090	9.2647420
2.337540	9.4629320
2.341030	9.9499270
2.345130	10.5358350
2.348430	11.0208520
2.349290	11.1494480
2.349120	11.1244760
2.350740	11.3659390
2.351160	11.4307180
2.349080	11.1165640
2.347090	10.8232420
2.347540	10.8882620
2.350060	11.2644240
2.350610	11.3464290
2.349550	11.1878760
2.348690	11.0589240
2.347920	10.9450690
2.346770	10.7757840
2.347550	10.8901960
2.349030	11.1090980
2.350710	11.3625630
2.352740	11.6697150
2.354440	11.9316990
2.355030	12.0235830
2.358410	12.5539130
2.362050	13.1359210
2.362080	13.1406570
2.360420	12.8724380
2.361620	13.0661300
2.364340	13.5095350
2.364530	13.5412060
2.364770	13.5807370
2.367260	13.9930590
2.368770	14.2484630
2.370340	14.5137130
2.372950	14.9610780
2.373560	15.0677710
2.371500	14.7120070
2.369890	14.4371830
2.369650	14.3970560
2.370330	14.5117810
2.372470	14.8795850
2.374700	15.2659460
2.373280	15.0197740
2.369020	14.2902530
2.368360	14.1793170
2.372330	14.8535900
2.376760	15.6281540
2.380030	16.2111030
2.381320	16.4433610
2.380930	16.3731730
2.380740	16.3412480
2.379460	16.1097240
2.375900	15.4755550
2.372840	14.9426100
2.370190	14.4882200
2.367920	14.1050640
2.366620	13.8863420
2.364240	13.4933000
2.359470	12.7206260
2.352630	11.6535500
2.348380	11.0143150
2.349750	11.2176690
2.352480	11.6315480
2.354690	11.9698160
2.357830	12.4601820
2.359800	12.7735220
2.359490	12.7237040
2.358140	12.5094050
2.357850	12.4642880
2.356770	12.2935290
2.351940	11.5485320
2.347220	10.8411870
2.344760	10.4821470
2.341690	10.0437710
2.337640	9.4766990
2.333770	8.9526040
2.331250	8.6178350
2.330090	8.4663110
2.328900	8.3118880
2.327620	8.1471660
2.327660	8.1532530
2.328420	8.2497990
2.331460	8.6458780
2.337060	9.3977210
2.342500	10.1580280
2.348160	10.9815100
2.353810	11.8340310
2.357330	12.3810700
2.357720	12.4431960
2.355450	12.0882570
2.353400	11.7722430
2.351460	11.4755590
2.349190	11.1340760
2.346750	10.7730480
2.345850	10.6413660
2.344360	10.4252780
2.341970	10.0827790
2.341610	10.0316770
2.343180	10.2543950
2.343630	10.3201310
2.344290	10.4149300
2.346050	10.6716930
2.346930	10.7988920
2.348260	10.9957190
2.350080	11.2676120
2.351060	11.4157060
2.351390	11.4657930
2.353370	11.7668610
2.356690	12.2819400
2.359600	12.7414910
2.363070	13.3010920
2.367440	14.0242470
2.370010	14.4577320
2.370680	14.5725480
2.370090	14.4721440
2.369140	14.3096130
2.367800	14.0845830
2.366810	13.9177720
2.366310	13.8358940
2.366720	13.9047700
2.367830	14.0888150
2.370090	14.4714220
2.372360	14.8595910
2.373010	14.9735360
2.372990	14.9696900
2.374890	15.2982760
2.376250	15.5382700
2.375250	15.3624370
2.371800	14.7641630
2.367110	13.9690770
2.362940	13.2815700
2.359630	12.7471600
2.356550	12.2583380
2.353450	11.7794010
2.350920	11.3943070
2.348800	11.0748870
2.346430	10.7265970
2.345530	10.5933940
2.344250	10.4080630
2.343320	10.2751670
2.345150	10.5398000
2.346800	10.7802780
2.348200	10.9872160
2.351000	11.4057750
2.355200	12.0489390
2.359050	12.6538280
2.361000	12.9652550
2.362180	13.1577430
2.361190	12.9967980
2.358560	12.5756870
2.354800	11.9863550
2.351250	11.4430320
2.348960	11.1008770
2.348690	11.0599160
2.349100	11.1205120
2.347980	10.9539700
2.344860	10.4961930
2.342770	10.1975750
2.341980	10.0837300
2.339200	9.6934950
2.335950	9.2451230
2.336770	9.3577820
2.337850	9.5061030
2.335580	9.1962960
2.332820	8.8255250
2.332240	8.7479550
2.334410	9.0388900
2.337540	9.4632630
2.340350	9.8540150
2.342960	10.2231660
2.343690	10.3290280
2.341970	10.0829750
2.341520	10.0195590
2.345650	10.6119680
2.348790	11.0734670
2.348870	11.0868030
2.347610	10.8995970
2.347160	10.8333200
2.347290	10.8522770
2.347130	10.8289900
2.347030	10.8151230
2.348220	10.9891610
2.348550	11.0391650
2.346790	10.7790530
2.346970	10.8051630
2.349540	11.1863260
2.352370	11.6140020
2.355510	12.0969920
2.360810	12.9371280
2.366440	13.8561530
2.371020	14.6308200
2.375100	15.3374210
2.379650	16.1449600
2.382940	16.7394080
2.386560	17.4087120
2.390480	18.1476990
2.393370	18.7023620
2.392370	18.5104330
2.388550	17.7823830
2.387820	17.6452450
2.389550	17.9706130
2.390970	18.2412890
2.393130	18.6573350
2.393710	18.7685430
2.392170	18.4722730
2.389590	17.9785500
2.384060	16.9466720
2.377480	15.7561060
2.372720	14.9220380
2.368640	14.2251100
2.364590	13.5495890
2.359250	12.6861010
2.354090	11.8788170
2.349910	11.2420980
2.345070	10.5287370
2.340270	9.8433560
2.338480	9.5938030
2.338660	9.6177940
2.337890	9.5117830
2.337040	9.3943740
2.334830	9.0945750
2.333360	8.8966580
2.333030	8.8521630
2.333270	8.8854490
2.334360	9.0307840
2.334820	9.0934520
2.333620	8.9316300
2.333720	8.9453570
2.335260	9.1532740
2.336420	9.3107080
2.337900	9.5123700
2.340300	9.8469520
2.342670	10.1817810
2.344100	10.3874390
2.345840	10.6397030
2.345910	10.6507990
2.344930	10.5073470
2.345790	10.6311410
2.346600	10.7501640
2.347660	10.9073040
2.347640	10.9034600
2.347560	10.8927630
2.348480	11.0293330
2.348100	10.9721360
2.347050	10.8172640
2.346290	10.7055400
2.344470	10.4403110
2.339550	9.7421530
2.334000	8.9820380
2.331820	8.6933980
2.332520	8.7861610
2.333720	8.9450070
2.335720	9.2147160
2.338330	9.5721800
2.341330	9.9914590
2.344650	10.4670480
2.347150	10.8317500
2.345870	10.6438260
2.342130	10.1053710
2.338090	9.5395800
2.336180	9.2761660
2.338310	9.5694400
2.341100	9.9595770
2.342670	10.1817050
2.341680	10.0421440
2.341600	10.0303960
2.344260	10.4102880
2.347420	10.8713800
2.349490	11.1786430
2.350670	11.3559760
2.349400	11.1661670
2.346120	10.6797700
2.343610	10.3159770
2.343000	10.2289530
2.344830	10.4935020
2.346740	10.7717260
2.346270	10.7022390
2.346890	10.7935710
2.348280	10.9995330
2.349250	11.1427510
2.350060	11.2639570
2.353090	11.7229490
2.355030	12.0228410
2.351650	11.5040680
2.348460	11.0259890
2.349340	11.1566850
2.350320	11.3027540
2.349230	11.1411160
2.348520	11.0348650
2.349820	11.2273140
2.352030	11.5612530
2.353390	11.7696920
2.353590	11.7995000
2.352400	11.6173900
2.352050	11.5647030
2.353690	11.8165000
2.356610	12.2692340
2.356910	12.3159280
2.357250	12.3686550
2.357920	12.4743190
2.360460	12.8788740
2.362830	13.2626200
2.361460	13.0390190
2.358210	12.5214850
2.356660	12.2771650
2.356650	12.2763850
2.357150	12.3541980
2.357380	12.3896070
2.354620	11.9603830
2.351560	11.4901140
2.350310	11.3028170
2.350220	11.2878920
2.351830	11.5303060
2.353510	11.7876020
2.354820	11.9899440
2.354870	11.9985420
2.352830	11.6839860
2.349680	11.2069680
2.347420	10.8719600
2.346090	10.6773500
2.345750	10.6268200
2.345940	10.6531630
2.346020	10.6659650
2.346920	10.7975430
2.345930	10.6530700
2.343740	10.3358170
2.343810	10.3458400
2.346240	10.6968980
2.349790	11.2227300
2.351670	11.5070460
2.351010	11.4072450
2.350860	11.3849250
2.350820	11.3791310
2.353070	11.7206600
2.357600	12.4241240
2.361930	13.1174520
2.361640	13.0691820
2.357780	12.4529440
2.355340	12.0698000
2.351950	11.5490460
2.347640	10.9030490
2.348370	11.0115360
2.350850	11.3829120
2.352000	11.5573390
2.351720	11.5137320
2.350570	11.3408110
2.349870	11.2369800
2.350240	11.2919280
2.350470	11.3261590
2.350840	11.3809100
2.352370	11.6133780
2.354520	11.9444120
2.356020	12.1776750
2.356520	12.2550670
2.358780	12.6110730
2.360270	12.8498770
2.358860	12.6244340
2.355960	12.1681830
2.353100	11.7256590
2.351010	11.4062200
2.349850	11.2330140
2.350680	11.3581280
2.352360	11.6116830
2.352640	11.6544660
2.351140	11.4256500
2.350260	11.2950140
2.348920	11.0943350
2.348350	11.0095200
2.350630	11.3491300
2.354520	11.9443640
2.356030	12.1783500
2.356910	12.3161830
2.360860	12.9427980
2.367140	13.9735860
2.373750	15.1011950
2.378830	15.9954530
2.382710	16.6970040
2.386140	17.3311880
2.386970	17.4855120
2.385490	17.2090780
2.384730	17.0684890
2.383280	16.8021850
2.379680	16.1502060
2.374330	15.2020120
2.370060	14.4666080
2.365580	13.7135790
2.360400	12.8689190
2.356530	12.2571000
2.353330	11.7608920
2.350130	11.2747770
2.346430	10.7263400
2.341460	10.0106330
2.337090	9.4022000
2.336050	9.2596220
2.335160	9.1387510
2.333680	8.9396240
2.334900	9.1036880
2.339020	9.6684680
2.340390	9.8593700
2.340270	9.8431220
2.343310	10.2736840
2.345810	10.6357490
2.345680	10.6168240
2.344520	10.4493350
2.345600	10.6049480
2.348710	11.0621470
2.351090	11.4196600
2.352260	11.5972190
2.353780	11.8303350
2.353940	11.8542890
2.351850	11.5338910
2.350730	11.3640400
2.350540	11.3361810
2.350330	11.3046380
2.350960	11.3989940
2.351660	11.5052220
2.350640	11.3514810
2.347690	10.9110830
2.345750	10.6278590
2.344320	10.4191170
2.343030	10.2347660
2.342550	10.1656770
2.343800	10.3440480
2.344940	10.5079870
2.344910	10.5047620
2.345590	10.6037940
2.346860	10.7895920
2.346780	10.7769470
2.346830	10.7848600
2.348820	11.0793810
2.350200	11.2852970
2.350920	11.3941590
2.352410	11.6196910
2.353700	11.8175440
2.356080	12.1853860
2.358300	12.5346080
2.358620	12.5863460
2.359360	12.7025360
2.363250	13.3319220
2.368250	14.1596640
2.370180	14.4875570
2.370260	14.5004630
2.368730	14.2413870
2.366050	13.7921710
2.363370	13.3511020
2.361250	13.0072910
2.359450	12.7172800
2.357580	12.4208740
2.356080	12.1861920
2.354070	11.8750690
2.350900	11.3908940
2.348060	10.9666090
2.346420	10.7233430
2.345730	10.6235730
2.345480	10.5861650
2.345170	10.5431800
2.345400	10.5745900
2.344390	10.4287850
2.342520	10.1615670
2.340090	9.8175630
2.337530	9.4623980
2.337120	9.4060890
2.339010	9.6672920
2.338670	9.6205890
2.336070	9.2625150
2.335190	9.1426500
2.334810	9.0915520
2.332410	8.7708620
2.331310	8.6254820
2.332130	8.7337870
2.332090	8.7289240
2.331580	8.6610270
2.335040	9.1221590
2.339980	9.8024950
2.341920	10.0763310
2.341880	10.0696260
2.341320	9.9904140
2.340910	9.9324290
2.339930	9.7948270
2.336730	9.3535270
2.333460	8.9100550
2.332730	8.8123260
2.333110	8.8649440
2.331960	8.7116480
2.329870	8.4380550
2.328570	8.2686160
2.328470	8.2561440
2.328700	8.2865310
2.329350	8.3702430
2.332200	8.7437510
2.335380	9.1683120
2.337360	9.4383130
2.337890	9.5127260
2.338510	9.5983090
2.341160	9.9686020
2.345050	10.5260540
2.348930	11.0955620
2.351630	11.5023780
2.351730	11.5164480
2.352460	11.6272630
2.354380	11.9208600
2.356300	12.2210600
2.359070	12.6573820
2.360390	12.8680620
2.359880	12.7851300
2.359500	12.7252660
2.360350	12.8617320
2.361510	13.0483970
2.364640	13.5592950
2.367700	14.0673060
2.368400	14.1855860
2.368290	14.1663450
2.368540	14.2090550
2.369960	14.4487900
2.371530	14.7169020
2.373010	14.9729810
2.375480	15.4027750
2.379720	16.1553730
2.381950	16.5596640
2.380810	16.3523060
2.380250	16.2509330
2.380880	16.3662570
2.381770	16.5274660
2.381230	16.4293480
2.381340	16.4486750
2.383040	16.7595210
2.383700	16.8795450
2.380290	16.2591510
2.376340	15.5530690
2.375480	15.4040190
2.374520	15.2345270
2.373330	15.0262340
2.373850	15.1178930
2.375890	15.4750590
2.377740	15.8024160
2.380520	16.2991350
2.385550	17.2204610
2.391060	18.2572100
2.393840	18.7947940
2.392590	18.5529540
2.389510	17.9645290
2.389140	17.8933750
2.390850	18.2195170
2.392910	18.6134570
2.393940	18.8128570
2.395050	19.0307620
2.394970	19.0143340
2.394440	18.9107490
2.394930	19.0050130
2.396030	19.2209430
2.396170	19.2489410
2.396080	19.2292460
2.397710	19.5507770
2.398680	19.7423740
2.396830	19.3781090
2.393050	18.6412540
2.391230	18.2914490
2.389700	17.9983770
2.385600	17.2296220
2.379970	16.2006150
2.373980	15.1405360
2.368310	14.1699590
2.363300	13.3396160
2.358490	12.5651450
2.357310	12.3780040
2.358060	12.4958280
2.356370	12.2321510
2.354040	11.8699540
2.353930	11.8533580
2.353050	11.7168600
2.349010	11.1070010
2.343360	10.2804850
2.340000	9.8039720
2.337560	9.4666680
2.335800	9.2258360
2.336810	9.3631240
2.337870	9.5097950
2.337900	9.5134300
2.339020	9.6693100
2.341410	10.0027370
2.344150	10.3939090
2.344860	10.4982600
2.343080	10.2411790
2.340630	9.8928730
2.339040	9.6699040
2.338340	9.5739590
2.339030	9.6702100
2.340670	9.8990550
2.343170	10.2539640
2.345710	10.6211050
2.349180	11.1335350
2.352190	11.5871950
2.354450	11.9327410
2.356400	12.2346940
2.357810	12.4572670
2.359640	12.7488480
2.363230	13.3277290
2.367170	13.9789330
2.367790	14.0836620
2.366260	13.8287260
2.366380	13.8473420
2.367600	14.0501690
2.366950	13.9421710
2.364230	13.4909000
2.362580	13.2225410
2.362240	13.1655800
2.362030	13.1326500
2.360500	12.8864730
2.357210	12.3630460
2.354140	11.8852290
2.352210	11.5892680
2.349150	11.1286990
2.344240	10.4077750
2.338820	9.6414410
2.333890	8.9687370
2.330320	8.4963830
2.329820	8.4313950
2.332080	8.7272590
2.334020	8.9856710
2.334600	9.0641110
2.336500	9.3215940
2.340220	9.8354500
2.343860	10.3530770
2.347930	10.9464840
2.350720	11.3634550
2.352530	11.6375110
2.354170	11.8895920
2.355410	12.0822570
2.355250	12.0567600
2.356280	12.2175480
2.357960	12.4806210
2.359890	12.7873060
2.361000	12.9658490
2.363310	13.3399280
2.366810	13.9198410
2.368640	14.2268790
2.368130	14.1394810
2.365750	13.7426630
2.363950	13.4450550
2.364030	13.4599480
2.365760	13.7441720
2.366300	13.8341580
2.365060	13.6278520
2.365180	13.6474850
2.364000	13.4531580
2.360960	12.9605050
2.358750	12.6069240
2.357450	12.3994780
2.356300	12.2211350
2.354660	11.9665010
2.353110	11.7258780
2.350930	11.3951040
2.348330	11.0068080
2.347540	10.8886180
2.348600	11.0472200
2.349360	11.1606100
2.351740	11.5174470
2.354720	11.9748820
2.355130	12.0384950
2.353380	11.7677410
2.350890	11.3884150
2.347650	10.9050550
2.343520	10.3037820
2.341320	9.9899490
2.342380	10.1417630
2.343290	10.2712990
2.343570	10.3105000
2.344610	10.4607100
2.346550	10.7437030
2.348070	10.9663860
2.349470	11.1755290
2.353710	11.8189490
2.358060	12.4962870
2.360170	12.8327810
2.362660	13.2339730
2.367400	14.0167770
2.372410	14.8680880
2.376220	15.5330670
2.380420	16.2820760
2.385250	17.1652240
2.388680	17.8054470
2.389180	17.9019180
2.387050	17.5000270
2.384200	16.9710500
2.383270	16.8014220
2.382160	16.5979790
2.381670	16.5099810
2.384030	16.9403500
2.387830	17.6461640
2.390010	18.0579970
2.389090	17.8831250
2.388550	17.7829020
2.388290	17.7332020
2.386400	17.3783860
2.385820	17.2720640
2.386670	17.4292960
2.387940	17.6673410
2.389810	18.0203670
2.390520	18.1546080
2.387750	17.6318240
2.383270	16.8015690
2.381720	16.5160830
2.382380	16.6385590
2.382660	16.6875380
2.384020	16.9380930
2.385900	17.2843250
2.388070	17.6923310
2.390240	18.1017170
2.390770	18.2030660
2.390100	18.0761990
2.390110	18.0785310
2.390440	18.1405600
2.388920	17.8522000
2.387260	17.5380460
2.386150	17.3321990
2.384740	17.0713440
2.384980	17.1156230
2.388480	17.7684710
2.391370	18.3189740
2.393780	18.7829020
2.399390	19.8854560
2.405230	21.0686340
2.408430	21.7286530
2.410200	22.0993020
2.411230	22.3153780
2.410730	22.2111260
2.408240	21.6900620
2.405370	21.0955540
2.405290	21.0794300
2.406270	21.2817000
2.404890	20.9971260
2.404930	21.0039350
2.404990	21.0179000
2.403150	20.6414220
2.400500	20.1074100
2.399400	19.8866420
2.399770	19.9610390
2.400140	20.0350130
2.399900	19.9854870
2.400170	20.0407350
2.401420	20.2907980
2.402240	20.4577520
2.401550	20.3193130
2.400450	20.0973780
2.399510	19.9095860
2.399790	19.9645420
2.399260	19.8581310
2.399630	19.9332120
2.400260	20.0598130
2.400680	20.1431520
2.402500	20.5117760
2.405270	21.0747200
2.405280	21.0789320
2.402890	20.5883850
2.400120	20.0309100
2.397240	19.4583680
2.394850	18.9897230
2.392390	18.5129930
2.389520	17.9657900
2.386680	17.4327010
2.384120	16.9568730
2.382460	16.6529850
2.381140	16.4125750
2.381540	16.4846970
2.383550	16.8521840
2.386240	17.3487510
2.386700	17.4351100
2.387050	17.4998910
2.388080	17.6941870
2.387650	17.6140380
2.386500	17.3966350
2.386010	17.3072890
2.386530	17.4043410
2.387470	17.5785270
2.388670	17.8037720
2.388820	17.8347570
2.388890	17.8459300
2.389580	17.9770360
2.387730	17.6267240
2.385340	17.1817610
2.383600	16.8596320
2.382800	16.7154100
2.383450	16.8323230
2.384120	16.9561120
2.384060	16.9470020
2.383560	16.8536400
2.382410	16.6446720
2.380320	16.2629030
2.380630	16.3208260
2.383180	16.7842120
2.386920	17.4755230
2.389060	17.8798750
2.388490	17.7710820
2.386290	17.3581640
2.386910	17.4749830
2.390070	18.0696960
2.391310	18.3070220
2.389670	17.9946690
2.388150	17.7062440
2.388020	17.6837670
2.389650	17.9914590
2.393620	18.7517280
2.399180	19.8433280
2.405660	21.1552100
2.408950	21.8372940
2.408080	21.6554760
2.405490	21.1219040
2.403320	20.6761780
2.400550	20.1185490
2.395770	19.1702040
2.390040	18.0651970
2.385680	17.2449000
2.384020	16.9380070
2.382600	16.6775260
2.379400	16.0987850
2.375390	15.3874760
2.372770	14.9298370
2.371580	14.7264900
2.370800	14.5924510
2.369230	14.3261260
2.366290	13.8325440
2.363940	13.4429240
2.364530	13.5407860
2.367980	14.1154070
2.371350	14.6862460
2.375080	15.3330510
2.379470	16.1099190
2.381460	16.4699270
2.380790	16.3493210
2.380360	16.2721860
2.382130	16.5919530
2.382350	16.6325380
2.381110	16.4065590
2.382860	16.7254710
2.386450	17.3897650
2.388820	17.8322120
2.391960	18.4319320
2.396100	19.2338850
2.399240	19.8560200
2.401590	20.3252010
2.402890	20.5882990
2.405120	21.0435030
2.409840	22.0237750
2.414230	22.9541840
2.416500	23.4439490
2.419300	24.0542640
2.424150	25.1279870
2.427760	25.9451140
2.428850	26.1950970
2.429400	26.3199040
2.429320	26.3032360
2.427530	25.8925250
2.425670	25.4708820
2.421780	24.6012340
2.415800	23.2920230
2.409870	22.0298120
2.406180	21.2632690
2.404490	20.9138530
2.403740	20.7632980
2.402830	20.5776840
2.401300	20.2675080
2.399610	19.9290370
2.397730	19.5558240
2.396270	19.2694380
2.394960	19.0110420
2.392400	18.5140590
2.389350	17.9337060
2.388520	17.7762850
2.389220	17.9090000
2.389760	18.0119400
2.390620	18.1758400
2.390430	18.1382010
2.389210	17.9067100
2.391250	18.2958850
2.396330	19.2783620
2.399970	20.0004500
2.400020	20.0115360
2.396930	19.3976710
2.390570	18.1659930
2.385710	17.2503700
2.384440	17.0158520
2.384010	16.9353260
2.382480	16.6566390
2.381910	16.5519080
2.383440	16.8321300
2.384940	17.1081220
2.383620	16.8649200
2.381750	16.5239050
2.382480	16.6554130
2.385500	17.2116580
2.389160	17.8976730
2.392790	18.5904010
2.396580	19.3295310
2.399770	19.9607330
2.399790	19.9658320
2.397440	19.4989400
2.395780	19.1719070
2.395970	19.2088220
2.396960	19.4048770
2.398620	19.7332590
2.400170	20.0399860
2.399810	19.9702490
2.397790	19.5689410
2.396500	19.3127370
2.395880	19.1919710
2.396130	19.2386760
2.397700	19.5505350
2.399020	19.8102700
2.400770	20.1607070
2.402440	20.4969140
2.403790	20.7732050
2.407380	21.5101380
2.412250	22.5329840
2.414370	22.9851970
2.415590	23.2472340
2.416720	23.4917010
2.414980	23.1155150
2.412050	22.4893930
2.411560	22.3859370
2.410690	22.2026480
2.407550	21.5464800
2.404520	20.9204010
2.402660	20.5426500
2.399080	19.8240870
2.394010	18.8274060
2.391180	18.2805400
2.388870	17.8437210
2.386370	17.3738710
2.384850	17.0909750
2.383390	16.8219600
2.381490	16.4748020
2.380270	16.2557910
2.380090	16.2217350
2.382010	16.5701940
2.385600	17.2294810
2.390480	18.1479680
2.393730	18.7716390
2.396020	19.2192780
2.397790	19.5677870
2.399370	19.8814240
2.403200	20.6514800
2.405880	21.1990700
2.406530	21.3346290
2.407080	21.4494530
2.407080	21.4493180
2.404880	20.9937800
2.401680	20.3431630
2.396410	19.2969250
2.389130	17.8919700
2.382890	16.7309270
2.380620	16.3184070
2.381640	16.5031410
2.381800	16.5316750
2.382910	16.7328190
2.384510	17.0298610
2.387540	17.5919460
2.390670	18.1847920
2.391410	18.3262920
2.390390	18.1294480
2.388140	17.7047960
2.385750	17.2571870
2.382730	16.7005210
2.379280	16.0769500
2.378030	15.8523840
2.379420	16.1029320
2.380500	16.2968940
2.380540	16.3022400
2.383170	16.7817760
2.386030	17.3100450
2.386510	17.3988080
2.384460	17.0187570
2.381930	16.5555970
2.380940	16.3756370
2.381320	16.4450890
2.382300	16.6237620
2.384400	17.0074410
2.388040	17.6860710
2.393670	18.7616100
2.396230	19.2600630
2.394510	18.9256880
2.391560	18.3542020
2.388290	17.7336140
2.386590	17.4142700
2.384410	17.0098650
2.380550	16.3048590
2.377500	15.7596000
2.376980	15.6675640
2.378280	15.8981180
2.380830	16.3568250
2.382170	16.5990640
2.383270	16.8008520
2.383800	16.8966660
2.382820	16.7180100
2.382800	16.7149890
2.383820	16.9015050
2.386360	17.3717080
2.389250	17.9141410
2.389380	17.9384480
2.387850	17.6504060
2.387800	17.6407490
2.390840	18.2174240
2.395130	19.0436920
2.396640	19.3397600
2.397200	19.4511410
2.398170	19.6430340
2.400220	20.0516240
2.402320	20.4723800
2.403730	20.7601490
2.403910	20.7954200
2.401840	20.3752040
2.400160	20.0393100
2.399550	19.9166950
2.399140	19.8362810
2.398190	19.6461940
2.398230	19.6553080
2.398770	19.7602830
2.396290	19.2728250
2.393150	18.6602670
2.391670	18.3754390
2.392160	18.4691940
2.392470	18.5301760
2.390940	18.2347300
2.388810	17.8314880
2.386120	17.3257870
2.381400	16.4598900
2.376770	15.6309380
2.376240	15.5356910
2.379290	16.0776690
2.383690	16.8768830
2.387790	17.6391120
2.391670	18.3739600
2.394210	18.8644200
2.394800	18.9806400
2.392620	18.5592290
2.390270	18.1088240
2.389910	18.0394540
2.391170	18.2797990
2.391850	18.4096050
2.390800	18.2094140
2.388750	17.8197940
2.386740	17.4417320
2.383110	16.7720220
2.379890	16.1855300
2.378730	15.9786950
2.378500	15.9362480
2.378500	15.9384780
2.378310	15.9021720
2.378500	15.9369920
2.381450	16.4687650
2.385330	17.1786880
2.386270	17.3556500
2.384680	17.0584390
2.383220	16.7913070
2.382520	16.6631200
2.382810	16.7147790
2.386000	17.3037070
2.389640	17.9884280
2.390610	18.1726210
2.389410	17.9442160
2.387990	17.6752700
2.387580	17.5995660
2.387460	17.5782220
2.387440	17.5738200
2.387040	17.4976650
2.385040	17.1263500
2.381440	16.4672550
2.379500	16.1165120
2.379860	16.1819630
2.380150	16.2337070
2.379540	16.1242600
2.381260	16.4342190
2.385180	17.1531700
2.388510	17.7746280
2.390650	18.1804140
2.391530	18.3485950
2.391830	18.4054050
2.393840	18.7945270
2.396380	19.2888740
2.397390	19.4885140
2.395830	19.1810930
2.395180	19.0530620
2.395950	19.2046550
2.395060	19.0306850
2.394220	18.8682710
2.395060	19.0313660
2.398970	19.8014430
2.402250	20.4593770
2.403950	20.8057650
2.407110	21.4543080
2.410130	22.0854640
2.413840	22.8706670
2.416170	23.3724520
2.415290	23.1826900
2.413900	22.8834300
2.414410	22.9915980
2.412360	22.5560990
2.408020	21.6445540
2.405650	21.1533300
2.404250	20.8665870
2.402020	20.4142130
2.399190	19.8447690
2.398060	19.6202160
2.397010	19.4121990
2.395550	19.1267200
2.394460	18.9126420
2.393880	18.8017480
2.391860	18.4125230
2.389620	17.9852830
2.389050	17.8767890
2.389450	17.9528520
2.388640	17.7981660
2.387170	17.5228350
2.385300	17.1736760
2.383280	16.8027060
2.384050	16.9446390
2.387620	17.6062910
2.392700	18.5727830
2.398230	19.6534860
2.403040	20.6202560
2.406340	21.2948880
2.408510	21.7451440
2.411290	22.3276140
2.411110	22.2901170
2.409190	21.8893010
2.410150	22.0879520
2.413730	22.8465560
2.416600	23.4664020
2.416780	23.5052680
2.416900	23.5294990
2.416990	23.5512750
2.415370	23.2017290
2.411840	22.4442860
2.407960	21.6296710
2.406540	21.3357890
2.408020	21.6427060
2.409600	21.9732510
2.410370	22.1357710
2.406970	21.4252620
2.403840	20.7826440
2.403350	20.6841490
2.404600	20.9383790
2.404320	20.8811970
2.402750	20.5613520
2.400060	20.0196170
2.397710	19.5506520
2.397540	19.5180780
2.396310	19.2762660
2.393470	18.7218890
2.392890	18.6095540
2.393830	18.7916770
2.393400	18.7092490
2.392050	18.4489290
2.389410	17.9435390
2.387740	17.6301500
2.386670	17.4302600
2.383730	16.8853570
2.379180	16.0601120
2.377270	15.7176900
2.376810	15.6364140
2.376520	15.5860080
2.377630	15.7815960
2.381050	16.3957710
2.384160	16.9646300
2.385930	17.2914450
2.387470	17.5786460
2.387450	17.5757160
2.386160	17.3352530
2.387420	17.5705890
2.389370	17.9356920
2.390540	18.1598740
2.391500	18.3423020
2.390910	18.2298260
2.389000	17.8668190
2.385750	17.2595900
2.382340	16.6286300
2.383330	16.8108480
2.385460	17.2049980
2.384090	16.9506300
2.382000	16.5695900
2.381400	16.4598670
2.381580	16.4925940
2.383830	16.9030780
2.384750	17.0722580
2.382710	16.6976930
2.382650	16.6870420
2.383930	16.9210830
2.384750	17.0722770
2.386770	17.4477290
2.390290	18.1113590
2.392020	18.4429230
2.390920	18.2323020
2.389900	18.0371990
2.391160	18.2773380
2.392750	18.5822350
2.391930	18.4241500
2.392720	18.5772230
2.394300	18.8826030
2.394850	18.9895020
2.394050	18.8347130
2.392880	18.6084500
2.393440	18.7171880
2.397250	19.4604420
2.399150	19.8372730
2.399500	19.9068340
2.401300	20.2679650
2.403470	20.7072600
2.405330	21.0866150
2.405810	21.1861210
2.404220	20.8598840
2.403530	20.7186030
2.405450	21.1111740
2.408480	21.7394730
2.409910	22.0381090
2.410820	22.2300280
2.414110	22.9273620
2.418330	23.8426610
2.421560	24.5508580
2.423270	24.9327930
2.421150	24.4628870
2.417160	23.5862240
2.412710	22.6298850
2.407800	21.5973570
2.403340	20.6808780
2.398700	19.7491510
2.393240	18.6773200
2.389170	17.8997340
2.387860	17.6518610
2.387640	17.6112670
2.385580	17.2271920
2.380900	16.3687570
2.375110	15.3374390
2.371460	14.7044810
2.369510	14.3740490
2.365440	13.6908320
2.359220	12.6803220
2.355270	12.0600050
2.353440	11.7774770
2.353140	11.7306880
2.353450	11.7789410
2.355670	12.1216750
2.359590	12.7401220
2.363880	13.4342510
2.368000	14.1186520
2.372620	14.9041200
2.377980	15.8442560
2.381550	16.4871030
2.384170	16.9670980
2.385080	17.1334720
2.384460	17.0198520
2.385240	17.1624160
2.387510	17.5868660
2.389410	17.9454570
2.391220	18.2895980
2.391770	18.3947510
2.390760	18.2015780
2.390860	18.2205940
2.394490	18.9189210
2.399510	19.9087830
2.403510	20.7157960
2.403990	20.8131480
2.402400	20.4904420
2.402820	20.5753140
2.404670	20.9532360
2.403550	20.7234950
2.401560	20.3203470
2.401690	20.3475170
2.401780	20.3640250
2.400160	20.0394690
2.397280	19.4668850
2.395230	19.0653420
2.396570	19.3271880
2.399230	19.8541280
2.401340	20.2755370
2.403430	20.6999590
2.406120	21.2496640
2.409170	21.8818930
2.410620	22.1860220
2.410350	22.1293050
2.407210	21.4751850
2.400990	20.2051870
2.393700	18.7659510
2.388730	17.8162040
2.387280	17.5428680
2.386160	17.3338850
2.383240	16.7943080
2.380340	16.2673440
2.377940	15.8368020
2.373820	15.1116620
2.367990	14.1167200
2.363000	13.2908310
2.361390	13.0282210
2.362580	13.2204290
2.363530	13.3761390
2.362830	13.2623970
2.362000	13.1287040
2.360630	12.9057590
2.358410	12.5520860
2.356940	12.3202410
2.354830	11.9919250
2.352160	11.5822830
2.351230	11.4406780
2.352490	11.6317850
2.352910	11.6958510
2.352850	11.6884210
2.354380	11.9217820
2.357890	12.4699700
2.362140	13.1519130
2.366540	13.8736480
2.369270	14.3310050
2.370940	14.6149290
2.372110	14.8176670
2.372060	14.8086540
2.370030	14.4601150
2.369000	14.2865590
2.370070	14.4680210
2.372540	14.8904020
2.374530	15.2367850
2.374950	15.3105880
2.375180	15.3501680
2.377150	15.6962550
2.377520	15.7636940
2.377400	15.7417690
2.379030	16.0326020
2.380860	16.3611130
2.380130	16.2291220
2.376750	15.6266170
2.376030	15.4984850
2.377500	15.7604710
2.379900	16.1868570
2.382890	16.7309250
2.387730	17.6277600
2.392740	18.5810950
2.396180	19.2490580
2.399690	19.9446070
2.402710	20.5529750
2.404660	20.9502300
2.404960	21.0115870
2.403870	20.7898830
2.401420	20.2925870
2.397280	19.4680460
2.394010	18.8269840
2.392550	18.5440060
2.393250	18.6792110
2.396290	19.2720970
2.399430	19.8935320
2.401230	20.2544860
2.402900	20.5920160
2.406440	21.3151250
2.410750	22.2139510
2.413790	22.8607850
2.416040	23.3447420
2.416980	23.5486810
2.415940	23.3227290
2.413360	22.7687170
2.410260	22.1119940
2.407170	21.4682370
2.403220	20.6551900
2.398600	19.7290760
2.395850	19.1851020
2.394040	18.8323690
2.393030	18.6370810
2.393090	18.6487850
2.394020	18.8297900
2.394720	18.9636400
2.395950	19.2051890
2.397700	19.5511490
2.399790	19.9650650
2.403140	20.6396560
2.407180	21.4688170
2.409700	21.9940010
2.411020	22.2724270
2.411060	22.2817380
2.410170	22.0936450
2.409840	22.0246890
2.409540	21.9606300
2.407560	21.5495400
2.402650	20.5406110
2.397620	19.5354540
2.392920	18.6146680
2.389290	17.9218900
2.388760	17.8226010
2.388430	17.7595060
2.387400	17.5661140
2.386260	17.3529740
2.386970	17.4863030
2.388200	17.7157060
2.386190	17.3404920
2.382920	16.7369020
2.380350	16.2705990
2.378670	15.9691660
2.377780	15.8080270
2.378440	15.9272140
2.379500	16.1160030
2.380540	16.3029310
2.381080	16.4017090
2.380550	16.3059640
2.379400	16.0989760
2.378230	15.8895770
2.377220	15.7108450
2.375760	15.4527260
2.374750	15.2750180
2.375210	15.3559470
2.378530	15.9436720
2.383760	16.8896370
2.387330	17.5529630
2.389670	17.9951080
2.392500	18.5364880
2.396030	19.2211280
2.398230	19.6547130
2.398290	19.6677170
2.398400	19.6869870
2.399170	19.8416330
2.399000	19.8073480
2.399770	19.9603810
2.401770	20.3618030
2.404290	20.8743420
2.406150	21.2574650
2.408610	21.7666030
2.412910	22.6732460
2.417330	23.6226600
2.420980	24.4253460
2.424560	25.2219750
2.427340	25.8502830
2.429590	26.3638230
2.431850	26.8842350
2.433610	27.2956180
2.432880	27.1236570
2.431530	26.8104740
2.429780	26.4092640
2.428290	26.0669880
2.427520	25.8923820
2.428310	26.0693910
2.428620	26.1412350
2.427260	25.8320850
2.425510	25.4360810
2.423130	24.9015920
2.419220	24.0355680
2.414330	22.9767680
2.412720	22.6331600
2.414060	22.9183900
2.414580	23.0306700
2.411480	22.3709200
2.406840	21.3981000
2.403250	20.6619320
2.403400	20.6929650
2.405370	21.0968780
2.405590	21.1423590
2.404550	20.9264660
2.402550	20.5205760
2.398800	19.7669890
2.394670	18.9565180
2.392260	18.4885690
2.393300	18.6899800
2.396280	19.2703950
2.396680	19.3480490
2.393880	18.8016070
2.392520	18.5392110
2.393510	18.7287620
2.393080	18.6459480
2.390090	18.0732140
2.388070	17.6906110
2.386270	17.3542710
2.383750	16.8892940
2.383210	16.7903770
2.386170	17.3363760
2.389260	17.9159760
2.393030	18.6372340
2.396910	19.3940530
2.399320	19.8708320
2.401520	20.3130210
2.404560	20.9281880
2.407640	21.5632270
2.409930	22.0429520
2.411910	22.4595850
2.413090	22.7127080
2.413070	22.7064700
2.413580	22.8152280
2.415580	23.2434040
2.417970	23.7620070
2.420130	24.2356360
2.420300	24.2747990
2.418500	23.8794360
2.417120	23.5788310
2.416380	23.4185070
2.413620	22.8223920
2.409480	21.9478190
2.407070	21.4463540
2.405760	21.1756320
2.402500	20.5105900
2.397490	19.5080170
2.395460	19.1092210
2.394990	19.0171090
2.394340	18.8916210
2.394000	18.8246650
2.392770	18.5860210
2.390560	18.1637940
2.389750	18.0097750
2.391550	18.3537540
2.391750	18.3908370
2.388900	17.8474600
2.384800	17.0819090
2.380430	16.2834550
2.378310	15.9033490
2.375950	15.4846750
2.372970	14.9648330
2.370830	14.5958550
2.369840	14.4292830
2.369730	14.4106520
2.370980	14.6238540
2.373810	15.1114720
2.375040	15.3245030
2.373700	15.0911590
2.370180	14.4852370
2.366920	13.9376200
2.365450	13.6930040
2.365520	13.7043310
2.366900	13.9328550
2.366550	13.8746660
2.363970	13.4484560
2.362230	13.1647500
2.362030	13.1320360
2.362200	13.1598420
2.360140	12.8279720
2.358510	12.5676790
2.358090	12.5024240
2.359990	12.8044610
2.363190	13.3220650
2.366670	13.8956720
2.369960	14.4485580
2.373210	15.0060420
2.375080	15.3330580
2.373870	15.1207470
2.372220	14.8373450
2.372630	14.9067040
2.373860	15.1187040
2.377910	15.8313470
2.384800	17.0826400
2.391450	18.3329680
2.394760	18.9727880
2.396350	19.2834930
2.398250	19.6576230
2.399000	19.8090170
2.399480	19.9032040
2.399180	19.8426760
2.396590	19.3316170
2.393550	18.7372440
2.393700	18.7677760
2.394350	18.8935380
2.394010	18.8266830
2.394050	18.8354020
2.394040	18.8329580
2.393450	18.7178250
2.391820	18.4045300
2.390570	18.1660500
2.388400	17.7547190
2.383500	16.8441490
2.378300	15.9018910
2.376390	15.5637170
2.374920	15.3037500
2.372240	14.8387880
2.371120	14.6480310
2.374830	15.2897910
2.378820	15.9940740
2.378920	16.0122150
2.376560	15.5914710
2.376190	15.5285260
2.378020	15.8514980
2.378900	16.0090500
2.380370	16.2735690
2.382840	16.7215960
2.385450	17.2026160
2.387960	17.6709210
2.388730	17.8172840
2.389830	18.0239680
2.391900	18.4203400
2.393180	18.6664540
2.393280	18.6849040
2.393260	18.6817280
2.391920	18.4226530
2.388640	17.8005180
2.385000	17.1189670
2.381010	16.3872910
2.378380	15.9171030
2.377930	15.8351240
2.377600	15.7762500
2.376470	15.5776710
2.376100	15.5108120
2.377140	15.6946600
2.378090	15.8645790
2.379900	16.1880800
2.383360	16.8176980
2.385280	17.1700000
2.384650	17.0545730
2.384700	17.0637470
2.387280	17.5432890
2.389750	18.0099580
2.391060	18.2585330
2.392760	18.5851040
2.394250	18.8723350
2.395460	19.1094610
2.397000	19.4122750
2.399680	19.9433380
2.401940	20.3966830
2.404070	20.8294560
2.407370	21.5089340
2.409510	21.9544680
2.408230	21.6883580
2.405450	21.1139140
2.405480	21.1169380
2.406060	21.2382530
2.404880	20.9949800
2.403670	20.7465250
2.404830	20.9854490
2.408200	21.6805270
2.410880	22.2427200
2.410890	22.2446860
2.408940	21.8345620
2.408170	21.6743980
2.408120	21.6638930
2.409560	21.9652670
2.412840	22.6567960
2.414740	23.0625190
2.415410	23.2099080
2.417060	23.5664880
2.418800	23.9451770
2.419700	24.1417290
2.420610	24.3421290
2.420640	24.3481980
2.419340	24.0630260
2.417460	23.6531090
2.415090	23.1409820
2.411410	22.3558880
2.406110	21.2478540
2.400830	20.1732430
2.397530	19.5163630
2.396150	19.2447050
2.394100	18.8433440
2.389710	18.0005740
2.387780	17.6367450
2.387250	17.5392700
2.386050	17.3124140
2.384700	17.0634310
2.384550	17.0353720
2.386060	17.3154910
2.386130	17.3292880
2.384450	17.0176790
2.383390	16.8219410
2.383040	16.7578640
2.382250	16.6137750
2.383200	16.7878650
2.385110	17.1386130
2.387740	17.6294140
2.389780	18.0148660
2.390820	18.2131790
2.392760	18.5851760
2.394480	18.9184070
2.394920	19.0030540
2.395100	19.0373520
2.395980	19.2104020
2.395100	19.0384620
2.394360	18.8949760
2.395220	19.0626030
2.396310	19.2772080
2.397900	19.5890850
2.399610	19.9282840
2.399900	19.9860310
2.400340	20.0761240
2.402380	20.4865130
2.406570	21.3431990
2.409580	21.9684200
2.411170	22.3046050
2.412310	22.5455800
2.412590	22.6047740
2.412530	22.5918520
2.412110	22.5033930
2.410370	22.1368770
2.408930	21.8336180
2.407240	21.4825270
2.406670	21.3635830
2.406350	21.2981800
2.405000	21.0200000
2.403150	20.6417920
2.403090	20.6305580
2.406190	21.2636970
2.409870	22.0281980
2.412030	22.4856620
2.414950	23.1081870
2.417930	23.7531130
2.418140	23.7992320
2.418670	23.9166160
2.420000	24.2081110
2.420780	24.3783020
2.420430	24.3040600
2.419200	24.0316510
2.417430	23.6463830
2.416790	23.5081960
2.418520	23.8825930
2.419380	24.0715940
2.416290	23.3999080
2.411070	22.2833840
2.406710	21.3714160
2.402590	20.5281620
2.399670	19.9403130
2.399440	19.8955860
2.402170	20.4453680
2.405970	21.2200930
2.407940	21.6273650
2.409070	21.8635180
2.411130	22.2960700
2.411870	22.4516070
2.409400	21.9316350
2.408820	21.8102890
2.410370	22.1352670
2.412270	22.5352290
2.411840	22.4464570
2.409910	22.0389350
2.407350	21.5040660
2.404500	20.9159220
2.401900	20.3879470
2.398790	19.7670290
2.395620	19.1396480
2.393430	18.7153320
2.392680	18.5698910
2.392760	18.5842090
2.393590	18.7443470
2.396840	19.3792570
2.402030	20.4150310
2.406280	21.2833120
2.409150	21.8785290
2.411070	22.2823310
2.412490	22.5827370
2.413700	22.8403470
2.414450	23.0017430
2.412810	22.6531890
2.408720	21.7894480
2.404630	20.9428040
2.401230	20.2534240
2.399920	19.9927730
2.401040	20.2160260
2.401120	20.2298830
2.400440	20.0953410
2.398400	19.6894820
2.395830	19.1820700
2.394130	18.8486270
2.391870	18.4130080
2.390330	18.1199420
2.390940	18.2374940
2.391480	18.3382910
2.390250	18.1036950
2.389690	17.9983670
2.390260	18.1070980
2.391700	18.3824410
2.393080	18.6461370
2.395050	19.0291390
2.396670	19.3467790
2.399030	19.8139210
2.399160	19.8387390
2.397690	19.5483880
2.398320	19.6714250
2.398210	19.6502720
2.396310	19.2754270
2.395920	19.1999680
2.395680	19.1524180
2.394940	19.0086940
2.394060	18.8370170
2.393860	18.7979580
2.396040	19.2217850
2.400380	20.0835630
2.402360	20.4829440
2.401020	20.2122550
2.401720	20.3514630
2.404060	20.8287930
2.405270	21.0755840
2.405920	21.2100050
2.407300	21.4944210
2.412070	22.4946880
2.417610	23.6846730
2.420340	24.2832550
2.421020	24.4343260
2.421290	24.4920160
2.421810	24.6068190
2.421120	24.4537830
2.419710	24.1440090
2.418220	23.8174800
2.415400	23.2057800
2.412310	22.5466290
2.410850	22.2382720
2.409580	21.9692550
2.406670	21.3625240
2.404500	20.9170020
2.402710	20.5524670
2.401690	20.3472100
2.400690	20.1455080
2.397390	19.4870680
2.393370	18.7024940
2.389480	17.9584900
2.384670	17.0571590
2.380950	16.3773080
2.378660	15.9659060
2.377440	15.7487130
2.378170	15.8796510
2.378620	15.9591050
2.378850	16.0006830
2.379130	16.0503040
2.378380	15.9167420
2.377210	15.7082310
2.376970	15.6647660
2.374690	15.2659850
2.372330	14.8562510
2.372380	14.8627540
2.374520	15.2348570
2.378030	15.8539370
2.380980	16.3836860
2.382910	16.7359870
2.385480	17.2073330
2.388320	17.7380600
2.392340	18.5045170
2.396450	19.3031640
2.399130	19.8337590
2.401640	20.3371010
2.403410	20.6961290
2.403230	20.6594140
2.404720	20.9626500
2.407450	21.5235770
2.410410	22.1434540
2.413220	22.7405930
2.415980	23.3315640
2.418140	23.7991010
2.420420	24.3005890
2.422750	24.8168430
2.422340	24.7246700
2.418900	23.9664060
2.414290	22.9667380
2.409180	21.8856010
2.405160	21.0519350
2.402280	20.4663300
2.400450	20.0971680
2.399860	19.9777030
2.400240	20.0538020
2.401840	20.3764670
2.403500	20.7130530
2.403450	20.7036420
2.403310	20.6753220
2.404360	20.8889980
2.405840	21.1928980
2.406900	21.4110340
2.408230	21.6868040
2.409560	21.9651850
2.409830	22.0225030
2.408700	21.7840580
2.407160	21.4646680
2.404630	20.9437470
2.399830	19.9730210
2.395310	19.0803930
2.392170	18.4732650
2.388570	17.7849370
2.382640	16.6844160
2.375850	15.4678310
2.372270	14.8433490
2.370580	14.5536580
2.369250	14.3289650
2.368310	14.1705180
2.367790	14.0818790
2.367240	13.9897910
2.367390	14.0154090
2.369480	14.3674550
2.370680	14.5725480
2.368750	14.2433280
2.367010	13.9525990
2.368610	14.2196320
2.372740	14.9244840
2.376200	15.5283290
2.377840	15.8203120
2.377540	15.7676730
2.377180	15.7034140
2.376280	15.5441040
2.376200	15.5286950
2.377740	15.8030020
2.379870	16.1828730
2.379410	16.0988730
2.374990	15.3184170
2.369790	14.4204220
2.366280	13.8306350
2.363570	13.3830640
2.360460	12.8804920
2.359570	12.7372640
2.360500	12.8845170
2.360950	12.9584240
2.360450	12.8771580
2.360150	12.8290270
2.361710	13.0806390
2.366210	13.8178400
2.368550	14.2108610
2.369150	14.3116370
2.371090	14.6413800
2.376140	15.5192420
2.379330	16.0843870
2.378560	15.9481030
2.376770	15.6299090
2.376150	15.5217070
2.374720	15.2696060
2.372240	14.8396540
2.371160	14.6541040
2.372870	14.9484690
2.375110	15.3394270
2.374500	15.2315760
2.372530	14.8884060
2.371310	14.6797990
2.370740	14.5817880
2.372010	14.7988300
2.373810	15.1109360
2.374870	15.2958170
2.375190	15.3528670
2.375510	15.4079850
2.376420	15.5687050
2.377660	15.7886630
2.377140	15.6945070
2.374740	15.2737000
2.371350	14.6869140
2.367050	13.9578630
2.362210	13.1612210
2.358030	12.4912730
2.355880	12.1539670
2.354380	11.9225410
2.352750	11.6724000
2.352110	11.5735400
2.350970	11.4007920
2.348590	11.0448830
2.345610	10.6066540
2.346300	10.7070870
2.348390	11.0156970
2.350060	11.2642990
2.350300	11.3012560
2.349950	11.2480840
2.351460	11.4755600
2.353880	11.8449090
2.357180	12.3581680
2.359120	12.6656840
2.362140	13.1498810
2.365590	13.7161030
2.363800	13.4218480
2.356410	12.2376910
2.351920	11.5456750
2.350280	11.2974210
2.348000	10.9566310
2.346920	10.7988290
2.348010	10.9594100
2.349160	11.1286310
2.350600	11.3461280
2.352860	11.6880150
2.354910	12.0037360
2.357690	12.4396600
2.360290	12.8527570
2.361400	13.0316200
2.362310	13.1785330
2.364360	13.5133370
2.365480	13.6973570
2.364570	13.5479760
2.364930	13.6065680
2.366230	13.8212520
2.367030	13.9546370
2.367410	14.0192400
2.369050	14.2948470
2.369310	14.3391930
2.368460	14.1959710
2.369490	14.3691780
2.369680	14.4014460
2.369530	14.3769020
2.371230	14.6654830
2.372760	14.9290200
2.374850	15.2926940
2.377530	15.7642620
2.378640	15.9619630
2.377150	15.6980250
2.373380	15.0370450
2.369570	14.3840270
2.366710	13.9026580
2.363500	13.3729660
2.361410	13.0331370
2.361160	12.9927240
2.359680	12.7543870
2.358120	12.5066880
2.356130	12.1945470
2.351490	11.4792410
2.347390	10.8670720
2.345760	10.6275660
2.344450	10.4384630
2.344570	10.4557330
2.347460	10.8775350
2.350550	11.3382180
2.353380	11.7687080
2.356410	12.2366670
2.358840	12.6206180
2.359790	12.7723710
2.360390	12.8674570
2.362910	13.2767080
2.365080	13.6310950
2.364070	13.4642670
2.363110	13.3075490
2.362340	13.1830330
2.360070	12.8171320
2.359550	12.7336800
2.362930	13.2782300
2.366170	13.8125180
2.368380	14.1820840
2.372450	14.8747870
2.377220	15.7098840
2.379030	16.0317800
2.379750	16.1608660
2.383450	16.8334540
2.387500	17.5846100
2.390650	18.1816480
2.392680	18.5700530
2.396280	19.2684080
2.399730	19.9542940
2.400780	20.1645950
2.401450	20.2977940
2.400500	20.1079520
2.399660	19.9395330
2.399180	19.8439560
2.395590	19.1335850
2.390710	18.1920810
2.387940	17.6683640
2.386550	17.4076650
2.385990	17.3024600
2.386400	17.3779700
2.386980	17.4881950
2.387280	17.5425110
2.385830	17.2740230
2.382350	16.6314140
2.376880	15.6486150
2.373110	14.9886150
2.372780	14.9336120
2.373240	15.0114360
2.373440	15.0470360
2.375180	15.3512130
2.377820	15.8168230
2.378110	15.8691250
2.376710	15.6192520
2.374710	15.2681830
2.373130	14.9925950
2.371470	14.7083560
2.370430	14.5303340
2.370420	14.5280860
2.368440	14.1927320
2.363760	13.4151370
2.360190	12.8359200
2.360500	12.8865170
2.360380	12.8670640
2.359320	12.6970330
2.358580	12.5798490
2.359800	12.7741300
2.361330	13.0193610
2.360490	12.8845350
2.359060	12.6550430
2.358800	12.6132970
2.359380	12.7064390
2.360280	12.8505580
2.360050	12.8137350
2.359200	12.6780670
2.358110	12.5051120
2.358170	12.5147500
2.359210	12.6783990
2.362710	13.2423070
2.367360	14.0117590
2.367860	14.0932490
2.364870	13.5975790
2.363160	13.3162220
2.364850	13.5929990
2.368090	14.1329400
2.370870	14.6045340
2.373330	15.0283500
2.376400	15.5649710
2.379100	16.0444390
2.380400	16.2785930
2.379520	16.1203900
2.377150	15.6973600
2.376320	15.5503820
2.376640	15.6066930
2.376410	15.5657820
2.375350	15.3794300
2.373880	15.1228130
2.372120	14.8195590
2.370380	14.5202650
2.367210	13.9866310
2.363260	13.3329700
2.359270	12.6902010
2.355500	12.0945850
2.354780	11.9845620
2.358170	12.5154240
2.361900	13.1111750
2.361800	13.0958400
2.359410	12.7107750
2.357030	12.3341570
2.356590	12.2658000
2.356610	12.2685240
2.355780	12.1394430
2.353340	11.7609110
2.351400	11.4663160
2.351160	11.4300990
2.352790	11.6785710
2.355610	12.1136260
2.358250	12.5270970
2.358720	12.6016960
2.357860	12.4656380
2.357440	12.3998720
2.357610	12.4266620
2.357400	12.3931100
2.355290	12.0629080
2.351120	11.4248570
2.346350	10.7147140
2.343610	10.3164940
2.343610	10.3169780
2.345350	10.5694790
2.347100	10.8238020
2.347090	10.8243130
2.345790	10.6329730
2.344490	10.4440610
2.343780	10.3409240
2.344290	10.4155040
2.345320	10.5631430
2.343780	10.3416410
2.340980	9.9415280
2.340700	9.9038460
2.343100	10.2445050
2.343830	10.3487420
2.344430	10.4360750
2.346430	10.7262650
2.349970	11.2515460
2.354820	11.9906370
2.360260	12.8471580
2.364730	13.5734970
2.367130	13.9731540
2.367390	14.0165170
2.367470	14.0289890
2.366840	13.9231710
2.365480	13.6974830
2.364310	13.5040760
2.364340	13.5088850
2.364720	13.5723700
2.364060	13.4643120
2.361820	13.0980940
2.359550	12.7345380
2.358700	12.5990700
2.360880	12.9462380
2.364190	13.4849420
2.365990	13.7828020
2.365160	13.6439670
2.363220	13.3248630
2.361540	13.0537920
2.358240	12.5252270
2.353200	11.7405750
2.348430	11.0207330
2.344430	10.4353960
2.342720	10.1892260
2.343590	10.3148610
2.347420	10.8721700
2.350650	11.3530560
2.351150	11.4286740
2.349610	11.1980250
2.349050	11.1120230
2.352090	11.5708840
2.356950	12.3227610
2.360670	12.9127450
2.362270	13.1702380
2.363420	13.3587040
2.363670	13.3993770
2.363360	13.3484900
2.361790	13.0943380
2.360410	12.8717090
2.360120	12.8242430
2.359180	12.6753850
2.357750	12.4481730
2.357020	12.3333640
2.356810	12.3001850
2.358050	12.4956320
2.359140	12.6687380
2.358090	12.5015650
2.357470	12.4042160
2.357180	12.3577100
2.356510	12.2529430
2.355390	12.0782610
2.354990	12.0157910
2.357790	12.4544900
2.362500	13.2078700
2.365760	13.7449440
2.368040	14.1244960
2.370620	14.5604640
2.372840	14.9417950
2.374090	15.1587480
2.373470	15.0527910
2.370690	14.5725000
2.366780	13.9129430
2.363030	13.2944870
2.360690	12.9154900
2.358980	12.6419270
2.357900	12.4719410
2.357210	12.3638910
2.357330	12.3824700
2.358800	12.6143990
2.361810	13.0955940
2.365570	13.7114910
2.368880	14.2653640
2.371140	14.6511600
2.372520	14.8869630
2.372280	14.8461400
2.372110	14.8172480
2.372370	14.8617530
2.371030	14.6324140
2.368280	14.1652550
2.367230	13.9883800
2.369170	14.3158920
2.371020	14.6305130
2.369810	14.4228940
2.364470	13.5314520
2.361530	13.0509260
2.361040	12.9729010
2.361160	12.9919960
2.359870	12.7841500
2.356280	12.2165300
2.354230	11.8997330
2.354290	11.9079420
2.355090	12.0319200
2.355820	12.1446700
2.356360	12.2299070
2.357320	12.3797990
2.358140	12.5085520
2.359220	12.6808330
2.360070	12.8165150
2.361150	12.9909310
2.361440	13.0368350
2.361010	12.9684940
2.360030	12.8117380
2.358340	12.5424220
2.356970	12.3262580
2.355910	12.1600360
2.355090	12.0317960
2.355730	12.1316410
2.356130	12.1943040
2.356440	12.2433470
2.358880	12.6274070
2.361700	13.0795900
2.360480	12.8835670
2.357580	12.4212780
2.355480	12.0924910
2.352920	11.6982760
2.349220	11.1390240
2.348730	11.0654910
2.351740	11.5171670
2.352720	11.6673920
2.350700	11.3606150
2.348880	11.0868770
2.348520	11.0355680
2.348820	11.0784540
2.350930	11.3944930
2.353550	11.7931110
2.355580	12.1072640
2.355850	12.1509070
2.355130	12.0385070
2.354160	11.8878800
2.353290	11.7536940
2.352150	11.5799640
2.350220	11.2879660
2.348840	11.0821060
2.348530	11.0360000
2.347800	10.9284650
2.346970	10.8051550
2.347660	10.9071500
2.350290	11.2994740
2.355060	12.0267480
2.359200	12.6771760
2.361900	13.1128570
2.364560	13.5460030
2.367540	14.0413060
2.368860	14.2631030
2.367530	14.0386880
2.367530	14.0384680
2.369190	14.3186860
2.368970	14.2808300
2.367280	13.9970050
2.366690	13.8998740
2.363670	13.3994690
2.360460	12.8787870
2.360430	12.8742240
2.360220	12.8409080
2.357000	12.3303310
2.352660	11.6576870
2.349780	11.2215880
2.349890	11.2383970
2.350300	11.2994040
2.350190	11.2841620
2.348800	11.0759780
2.345470	10.5866830
2.342960	10.2238920
2.340810	9.9184790
2.339660	9.7574860
2.340550	9.8822830
2.342050	10.0943540
2.343430	10.2907990
2.344000	10.3740710
2.344780	10.4850750
2.346240	10.6987200
2.348890	11.0896840
2.350640	11.3515420
2.351370	11.4628700
2.354460	11.9351610
2.356420	12.2387150
2.354690	11.9709150
2.352150	11.5799480
2.352900	11.6943990
2.356170	12.1992860
2.360230	12.8431980
2.363180	13.3197470
2.364870	13.5960850
2.365970	13.7791560
2.365590	13.7162040
2.364820	13.5878100
2.364230	13.4918430
2.364990	13.6171240
2.367040	13.9580250
2.368840	14.2594050
2.371420	14.6991110
2.375010	15.3213420
2.377180	15.7015000
2.378840	15.9970350
2.380670	16.3274230
2.381850	16.5409600
2.383870	16.9104690
2.387230	17.5339980
2.387630	17.6087950
2.382170	16.5993250
2.374700	15.2660620
2.368910	14.2716070
2.364630	13.5575210
2.359680	12.7548300
2.355880	12.1541270
2.354120	11.8819460
2.354770	11.9816930
2.355930	12.1624180
2.355800	12.1423320
2.354710	11.9731340
2.353560	11.7947870
2.353310	11.7569080
2.353270	11.7508410
2.352770	11.6746910
2.353250	11.7489110
2.353910	11.8504510
2.352080	11.5692890
2.348780	11.0720340
2.346540	10.7416880
2.346470	10.7315370
2.347820	10.9308730
2.349440	11.1703570
2.351320	11.4545300
2.353120	11.7283340
2.355290	12.0630420
2.358540	12.5725180
2.361670	13.0733880
2.364400	13.5192700
2.366790	13.9164550
2.369540	14.3770870
2.374110	15.1629120
2.379820	16.1747820
2.383710	16.8820380
2.386490	17.3954030
2.390070	18.0715430
2.394490	18.9199520
2.399730	19.9544870
2.402670	20.5452540
2.402530	20.5160710
2.401150	20.2386110
2.396910	19.3921300
2.392620	18.5586680
2.390860	18.2217900
2.389570	17.9759140
2.385040	17.1267450
2.381260	16.4340970
2.380150	16.2339570
2.379800	16.1716190
2.378600	15.9542830
2.377460	15.7521260
2.377100	15.6879100
2.377490	15.7583030
2.377390	15.7398710
2.374880	15.2963740
2.371430	14.7000060
2.368490	14.2002940
2.365770	13.7460490
2.364880	13.5995100
2.365870	13.7626900
2.367030	13.9556770
2.366550	13.8740840
2.363780	13.4186810
2.360150	12.8303070
2.359790	12.7715870
2.362890	13.2729040
2.364870	13.5968110
2.364330	13.5072040
2.365350	13.6754340
2.366960	13.9442310
2.366470	13.8622580
2.362260	13.1695390
2.357090	12.3439490
2.354530	11.9449630
2.354510	11.9419130
2.355600	12.1104590
2.357650	12.4325470
2.359610	12.7430750
2.362780	13.2542300
2.366380	13.8471970
2.368260	14.1616930
2.367630	14.0567320
2.363930	13.4427680
2.360060	12.8142230
2.359390	12.7076000
2.361990	13.1260750
2.362840	13.2646510
2.362520	13.2133230
2.362890	13.2718260
2.363190	13.3221950
2.366960	13.9442830
2.373200	15.0059360
2.375500	15.4058250
2.373550	15.0653570
2.371280	14.6747380
2.369310	14.3391490
2.366830	13.9222890
2.363500	13.3711090
2.359800	12.7728320
2.357900	12.4714970
2.356980	12.3281970
2.357200	12.3616450
2.356600	12.2661360
2.355490	12.0952770
2.356500	12.2523910
2.359250	12.6856240
2.361830	13.1003630
2.363450	13.3635820
2.363680	13.4013960
2.363770	13.4169140
2.362610	13.2277370
2.361370	13.0250460
2.361430	13.0358530
2.364020	13.4570850
2.367090	13.9642220
2.369780	14.4186400
2.373580	15.0706720
2.376380	15.5604640
2.379080	16.0419640
2.381680	16.5099280
2.382330	16.6293680
2.381520	16.4823650
2.381330	16.4468540
2.382600	16.6775000
2.386720	17.4378450
2.392000	18.4394630
2.395920	19.1991410
2.399360	19.8791790
2.401910	20.3907870
2.402230	20.4551090
2.399910	19.9890900
2.395730	19.1634750
2.392020	18.4432390
2.389320	17.9271370
2.387460	17.5764500
2.386890	17.4693600
2.387190	17.5262530
2.386150	17.3340300
2.384990	17.1177920
2.384420	17.0116650
2.385420	17.1965940
2.385200	17.1560150
2.382340	16.6308560
2.379730	16.1578880
2.378200	15.8845240
2.376150	15.5213370
2.374410	15.2148370
2.372820	14.9408450
2.372840	14.9434160
2.371950	14.7890360
2.370510	14.5427450
2.369600	14.3869660
2.367130	13.9717520
2.363980	13.4501690
2.361910	13.1126060
2.361820	13.0982720
2.362810	13.2596870
2.364030	13.4588990
2.365280	13.6647130
2.367290	13.9974550
2.368040	14.1244070
2.368830	14.2580770
2.370450	14.5334220
2.370700	14.5748210
2.369000	14.2862630
2.366540	13.8742030
2.362150	13.1513210
2.355810	12.1429910
2.350930	11.3946730
2.350420	11.3195550
2.353770	11.8273470
2.357230	12.3661560
2.360160	12.8314720
2.361930	13.1165730
2.359840	12.7793610
2.355750	12.1342810
2.354860	11.9961380
2.357310	12.3779960
2.359940	12.7952570
2.360860	12.9429880
2.358140	12.5107360
2.354150	11.8872240
2.351730	11.5166240
2.349840	11.2310390
2.349530	11.1853200
2.351270	11.4465790
2.351430	11.4702960
2.350510	11.3309290
2.348060	10.9665740
2.344160	10.3972950
2.343780	10.3416060
2.346810	10.7820310
2.349010	11.1065580
2.351160	11.4301630
2.354920	12.0061770
2.357560	12.4181240
2.359590	12.7405310
2.362650	13.2323200
2.365360	13.6778980
2.368330	14.1737290
2.369940	14.4444510
2.368850	14.2606120
2.367230	13.9888290
2.369200	14.3212360
2.372910	14.9557700
2.373340	15.0305430
2.371720	14.7485030
2.372260	14.8427250
2.374550	15.2397440
2.372990	14.9696810
2.367850	14.0935040
2.363450	13.3650920
2.362080	13.1411470
2.362540	13.2153680
2.361270	13.0086080
2.357940	12.4790760
2.355970	12.1681900
2.354630	11.9602530
2.356180	12.2026690
2.360550	12.8940350
2.365530	13.7061470
2.368850	14.2599750
2.370510	14.5434060
2.373480	15.0550960
2.378580	15.9509610
2.385190	17.1545390
2.389880	18.0331730
2.391900	18.4210510
2.393970	18.8178750
2.398900	19.7873940
2.403520	20.7185150
2.406500	21.3285730
2.411270	22.3256800
2.415860	23.3068280
2.418520	23.8845670
2.420450	24.3064980
2.423770	25.0454900
2.429990	26.4565580
2.437280	28.1581860
2.441040	29.0581570
2.441830	29.2478330
2.440500	28.9290770
2.437160	28.1313290
2.433300	27.2231730
2.430400	26.5486150
2.427460	25.8777310
2.425590	25.4549080
2.427520	25.8905740
2.430130	26.4881500
2.429110	26.2539830
2.426260	25.6053010
2.423610	25.0097100
2.422990	24.8686830
2.422620	24.7884290
2.420360	24.2866610
2.417310	23.6202960
2.413880	22.8799510
2.408530	21.7500880
2.404510	20.9175870
2.404430	20.9037860
2.406180	21.2629360
2.406510	21.3309150
2.404930	21.0046580
2.401570	20.3240600
2.399650	19.9367450
2.398480	19.7044120
2.397490	19.5069560
2.395670	19.1489770
2.392280	18.4908140
2.389980	18.0531020
2.389610	17.9827650
2.388340	17.7419950
2.386960	17.4845160
2.389350	17.9338780
2.393900	18.8058660
2.397610	19.5319580
2.399390	19.8863870
2.400710	20.1500450
2.403050	20.6223490
2.403590	20.7314130
2.403220	20.6557060
2.402380	20.4849050
2.399400	19.8869480
2.397440	19.4985430
2.396210	19.2560180
2.393750	18.7762760
2.391330	18.3105470
2.389100	17.8863620
2.387910	17.6603970
2.387220	17.5318260
2.387450	17.5766010
2.387530	17.5903380
2.387600	17.6021860
2.387950	17.6694660
2.387010	17.4934100
2.386750	17.4449830
2.387160	17.5203510
2.388670	17.8049640
2.390620	18.1747460
2.391330	18.3098430
2.391150	18.2752930
2.390800	18.2086790
2.390770	18.2039490
2.390250	18.1043320
2.390050	18.0666580
2.391670	18.3741380
2.394980	19.0157180
2.397720	19.5532760
2.398070	19.6230490
2.397100	19.4321750
2.396870	19.3867660
2.398850	19.7776320
2.401380	20.2829950
2.402690	20.5498700
2.402930	20.5966070
2.402270	20.4632930
2.401940	20.3972970
2.403240	20.6617720
2.404420	20.9006960
2.403720	20.7583080
2.402710	20.5527400
2.402480	20.5065500
2.401650	20.3384650
2.400210	20.0486010
2.399110	19.8307690
2.397640	19.5369990
2.397100	19.4324550
2.397640	19.5367490
2.398730	19.7554240
2.399270	19.8616260
2.398310	19.6693500
2.396380	19.2895770
2.394830	18.9876000
2.392590	18.5523590
2.389770	18.0113430
2.388460	17.7656140
2.388970	17.8618430
2.391620	18.3658580
2.395520	19.1207900
2.397730	19.5561260
2.399810	19.9680750
2.401950	20.4000990
2.402980	20.6086350
2.402700	20.5511720
2.401010	20.2090720
2.397900	19.5892890
2.395310	19.0803950
2.395170	19.0529690
2.397190	19.4504490
2.399450	19.8969710
2.400260	20.0582310
2.400330	20.0732190
2.399280	19.8634570
2.394600	18.9409140
2.388340	17.7422850
2.383490	16.8408050
2.380810	16.3534510
2.379910	16.1899010
2.379610	16.1364440
2.378190	15.8828010
2.377550	15.7669920
2.377510	15.7603470
2.376430	15.5695400
2.374590	15.2460440
2.373270	15.0162900
2.371830	14.7682380
2.370180	14.4868820
2.370460	14.5346570
2.369770	14.4163750
2.367200	13.9843690
2.366430	13.8558000
2.366690	13.8990170
2.367230	13.9884350
2.369240	14.3273370
2.369700	14.4053310
2.368360	14.1774300
2.368180	14.1483960
2.368780	14.2489750
2.369510	14.3732800
2.369570	14.3823320
2.368800	14.2513990
2.369880	14.4360370
2.373350	15.0322790
2.375900	15.4763740
2.376480	15.5794510
2.375240	15.3606900
2.373420	15.0445010
2.372640	14.9084500
2.373110	14.9894420
2.373160	14.9988340
2.372050	14.8068310
2.371930	14.7865950
2.372060	14.8090030
2.369600	14.3894830
2.368100	14.1343270
2.370990	14.6253460
2.375810	15.4603180
2.379500	16.1167810
2.380940	16.3762990
2.380240	16.2497200
2.378640	15.9618580
2.377020	15.6734720
2.376470	15.5778480